DATATYPE	 IR Spectrum
XYUNITS	 Wavenumber;Absorbance
DECIMALSYMBOL	 .
599.8177	 0.1246
601.7464	 0.1233
603.6751	 0.1228
605.6037	 0.1225
607.5324	 0.1217
609.4611	 0.1207
611.3898	 0.1202
613.3184	 0.1195
615.2471	 0.1187
617.1758	 0.1184
619.1045	 0.1175
621.0331	 0.1158
622.9618	 0.1141
624.8905	 0.1131
626.8192	 0.1119
628.7478	 0.1104
630.6765	 0.1097
632.6052	 0.1093
634.5339	 0.1084
636.4625	 0.1073
638.3912	 0.1067
640.3199	 0.1058
642.2485	 0.1048
644.1772	 0.1041
646.1059	 0.1035
648.0346	 0.1028
649.9632	 0.1021
651.8919	 0.1017
653.8206	 0.1013
655.7493	 0.1010
657.6779	 0.1010
659.6066	 0.1006
661.5353	 0.0999
663.4640	 0.0990
665.3926	 0.0988
667.3213	 0.1001
669.2500	 0.0982
671.1787	 0.0946
673.1073	 0.0923
675.0360	 0.0906
676.9647	 0.0887
678.8934	 0.0871
680.8220	 0.0856
682.7507	 0.0844
684.6794	 0.0833
686.6081	 0.0824
688.5367	 0.0816
690.4654	 0.0807
692.3941	 0.0798
694.3228	 0.0791
696.2514	 0.0785
698.1801	 0.0779
700.1088	 0.0772
702.0375	 0.0765
703.9661	 0.0759
705.8948	 0.0753
707.8235	 0.0746
709.7521	 0.0739
711.6808	 0.0732
713.6095	 0.0726
715.5382	 0.0721
717.4668	 0.0716
719.3955	 0.0712
721.3242	 0.0704
723.2529	 0.0696
725.1815	 0.0691
727.1102	 0.0685
729.0389	 0.0677
730.9676	 0.0671
732.8962	 0.0667
734.8249	 0.0662
736.7536	 0.0657
738.6823	 0.0651
740.6109	 0.0647
742.5396	 0.0643
744.4683	 0.0637
746.3970	 0.0631
748.3256	 0.0625
750.2543	 0.0620
752.1830	 0.0616
754.1117	 0.0612
756.0403	 0.0608
757.9690	 0.0604
759.8977	 0.0600
761.8264	 0.0596
763.7550	 0.0593
765.6837	 0.0589
767.6124	 0.0585
769.5411	 0.0580
771.4697	 0.0576
773.3984	 0.0571
775.3271	 0.0567
777.2557	 0.0562
779.1844	 0.0558
781.1131	 0.0555
783.0418	 0.0551
784.9704	 0.0547
786.8991	 0.0544
788.8278	 0.0541
790.7565	 0.0540
792.6851	 0.0540
794.6138	 0.0541
796.5425	 0.0542
798.4712	 0.0544
800.3998	 0.0545
802.3285	 0.0546
804.2572	 0.0547
806.1859	 0.0547
808.1145	 0.0546
810.0432	 0.0543
811.9719	 0.0538
813.9006	 0.0531
815.8292	 0.0521
817.7579	 0.0511
819.6866	 0.0500
821.6153	 0.0489
823.5439	 0.0479
825.4726	 0.0471
827.4013	 0.0465
829.3300	 0.0459
831.2586	 0.0454
833.1873	 0.0449
835.1160	 0.0445
837.0447	 0.0441
838.9733	 0.0437
840.9020	 0.0434
842.8307	 0.0433
844.7594	 0.0434
846.6880	 0.0436
848.6167	 0.0440
850.5454	 0.0444
852.4740	 0.0449
854.4027	 0.0454
856.3314	 0.0458
858.2601	 0.0462
860.1887	 0.0464
862.1174	 0.0465
864.0461	 0.0467
865.9748	 0.0469
867.9034	 0.0470
869.8321	 0.0471
871.7608	 0.0472
873.6895	 0.0472
875.6181	 0.0473
877.5468	 0.0474
879.4755	 0.0476
881.4042	 0.0479
883.3328	 0.0483
885.2615	 0.0489
887.1902	 0.0497
889.1189	 0.0505
891.0475	 0.0513
892.9762	 0.0520
894.9049	 0.0525
896.8336	 0.0526
898.7622	 0.0523
900.6909	 0.0515
902.6196	 0.0505
904.5483	 0.0493
906.4769	 0.0481
908.4056	 0.0470
910.3343	 0.0460
912.2630	 0.0453
914.1916	 0.0448
916.1203	 0.0446
918.0490	 0.0446
919.9776	 0.0448
921.9063	 0.0451
923.8350	 0.0455
925.7637	 0.0459
927.6923	 0.0465
929.6210	 0.0471
931.5497	 0.0477
933.4784	 0.0485
935.4070	 0.0493
937.3357	 0.0500
939.2644	 0.0509
941.1931	 0.0518
943.1217	 0.0528
945.0504	 0.0539
946.9791	 0.0551
948.9078	 0.0565
950.8364	 0.0580
952.7651	 0.0595
954.6938	 0.0612
956.6225	 0.0629
958.5511	 0.0646
960.4798	 0.0663
962.4085	 0.0680
964.3372	 0.0695
966.2658	 0.0711
968.1945	 0.0727
970.1232	 0.0745
972.0519	 0.0766
973.9805	 0.0792
975.9092	 0.0823
977.8379	 0.0860
979.7666	 0.0904
981.6952	 0.0954
983.6239	 0.1010
985.5526	 0.1067
987.4812	 0.1123
989.4099	 0.1176
991.3386	 0.1222
993.2673	 0.1260
995.1959	 0.1290
997.1246	 0.1315
999.0533	 0.1338
1000.9820	 0.1363
1002.9106	 0.1390
1004.8393	 0.1423
1006.7680	 0.1462
1008.6967	 0.1509
1010.6253	 0.1563
1012.5540	 0.1619
1014.4827	 0.1675
1016.4114	 0.1725
1018.3400	 0.1766
1020.2687	 0.1797
1022.1974	 0.1815
1024.1261	 0.1823
1026.0547	 0.1820
1027.9834	 0.1808
1029.9121	 0.1788
1031.8408	 0.1762
1033.7694	 0.1731
1035.6981	 0.1696
1037.6268	 0.1661
1039.5555	 0.1631
1041.4841	 0.1609
1043.4128	 0.1594
1045.3415	 0.1584
1047.2702	 0.1576
1049.1988	 0.1569
1051.1275	 0.1559
1053.0562	 0.1546
1054.9849	 0.1530
1056.9135	 0.1510
1058.8422	 0.1487
1060.7709	 0.1460
1062.6995	 0.1427
1064.6282	 0.1393
1066.5569	 0.1359
1068.4856	 0.1326
1070.4142	 0.1291
1072.3429	 0.1256
1074.2716	 0.1220
1076.2003	 0.1183
1078.1289	 0.1148
1080.0576	 0.1116
1081.9863	 0.1088
1083.9150	 0.1067
1085.8436	 0.1049
1087.7723	 0.1033
1089.7010	 0.1017
1091.6297	 0.1001
1093.5583	 0.0985
1095.4870	 0.0968
1097.4157	 0.0950
1099.3444	 0.0932
1101.2730	 0.0915
1103.2017	 0.0898
1105.1304	 0.0883
1107.0591	 0.0868
1108.9877	 0.0853
1110.9164	 0.0837
1112.8451	 0.0820
1114.7738	 0.0801
1116.7024	 0.0782
1118.6311	 0.0765
1120.5598	 0.0750
1122.4885	 0.0735
1124.4171	 0.0720
1126.3458	 0.0704
1128.2745	 0.0687
1130.2031	 0.0671
1132.1318	 0.0658
1134.0605	 0.0648
1135.9892	 0.0641
1137.9178	 0.0636
1139.8465	 0.0633
1141.7752	 0.0631
1143.7039	 0.0628
1145.6325	 0.0626
1147.5612	 0.0625
1149.4899	 0.0626
1151.4186	 0.0627
1153.3472	 0.0627
1155.2759	 0.0624
1157.2046	 0.0615
1159.1333	 0.0598
1161.0619	 0.0573
1162.9906	 0.0542
1164.9193	 0.0507
1166.8480	 0.0470
1168.7766	 0.0434
1170.7053	 0.0401
1172.6340	 0.0374
1174.5627	 0.0353
1176.4913	 0.0336
1178.4200	 0.0323
1180.3487	 0.0313
1182.2774	 0.0307
1184.2060	 0.0304
1186.1347	 0.0304
1188.0634	 0.0307
1189.9921	 0.0311
1191.9207	 0.0319
1193.8494	 0.0328
1195.7781	 0.0338
1197.7068	 0.0349
1199.6354	 0.0362
1201.5641	 0.0375
1203.4928	 0.0387
1205.4214	 0.0399
1207.3501	 0.0410
1209.2788	 0.0420
1211.2075	 0.0429
1213.1361	 0.0437
1215.0648	 0.0444
1216.9935	 0.0449
1218.9222	 0.0455
1220.8508	 0.0460
1222.7795	 0.0465
1224.7082	 0.0469
1226.6369	 0.0473
1228.5655	 0.0475
1230.4942	 0.0475
1232.4229	 0.0474
1234.3516	 0.0472
1236.2802	 0.0471
1238.2089	 0.0469
1240.1376	 0.0469
1242.0663	 0.0471
1243.9949	 0.0474
1245.9236	 0.0478
1247.8523	 0.0484
1249.7810	 0.0492
1251.7096	 0.0500
1253.6383	 0.0510
1255.5670	 0.0521
1257.4957	 0.0531
1259.4243	 0.0540
1261.3530	 0.0546
1263.2817	 0.0550
1265.2104	 0.0550
1267.1390	 0.0545
1269.0677	 0.0537
1270.9964	 0.0524
1272.9250	 0.0507
1274.8537	 0.0488
1276.7824	 0.0467
1278.7111	 0.0446
1280.6397	 0.0426
1282.5684	 0.0408
1284.4971	 0.0392
1286.4258	 0.0378
1288.3544	 0.0367
1290.2831	 0.0359
1292.2118	 0.0353
1294.1405	 0.0349
1296.0691	 0.0347
1297.9978	 0.0347
1299.9265	 0.0347
1301.8552	 0.0348
1303.7838	 0.0350
1305.7125	 0.0352
1307.6412	 0.0355
1309.5699	 0.0359
1311.4985	 0.0363
1313.4272	 0.0366
1315.3559	 0.0368
1317.2846	 0.0369
1319.2132	 0.0369
1321.1419	 0.0366
1323.0706	 0.0364
1324.9993	 0.0362
1326.9279	 0.0361
1328.8566	 0.0360
1330.7853	 0.0359
1332.7140	 0.0358
1334.6426	 0.0357
1336.5713	 0.0357
1338.5000	 0.0357
1340.4286	 0.0353
1342.3573	 0.0348
1344.2860	 0.0346
1346.2147	 0.0345
1348.1433	 0.0346
1350.0720	 0.0348
1352.0007	 0.0350
1353.9294	 0.0354
1355.8580	 0.0358
1357.7867	 0.0363
1359.7154	 0.0370
1361.6441	 0.0377
1363.5727	 0.0383
1365.5014	 0.0386
1367.4301	 0.0390
1369.3588	 0.0392
1371.2874	 0.0392
1373.2161	 0.0390
1375.1448	 0.0384
1377.0735	 0.0376
1379.0021	 0.0366
1380.9308	 0.0355
1382.8595	 0.0344
1384.7882	 0.0335
1386.7168	 0.0326
1388.6455	 0.0316
1390.5742	 0.0309
1392.5029	 0.0306
1394.4315	 0.0306
1396.3602	 0.0306
1398.2889	 0.0307
1400.2176	 0.0307
1402.1462	 0.0309
1404.0749	 0.0314
1406.0036	 0.0320
1407.9323	 0.0326
1409.8609	 0.0334
1411.7896	 0.0343
1413.7183	 0.0351
1415.6469	 0.0360
1417.5756	 0.0370
1419.5043	 0.0374
1421.4330	 0.0374
1423.3616	 0.0372
1425.2903	 0.0366
1427.2190	 0.0359
1429.1477	 0.0351
1431.0763	 0.0341
1433.0050	 0.0331
1434.9337	 0.0323
1436.8624	 0.0313
1438.7910	 0.0303
1440.7197	 0.0300
1442.6484	 0.0301
1444.5771	 0.0307
1446.5057	 0.0315
1448.4344	 0.0324
1450.3631	 0.0329
1452.2918	 0.0331
1454.2204	 0.0331
1456.1491	 0.0331
1458.0778	 0.0325
1460.0065	 0.0318
1461.9351	 0.0316
1463.8638	 0.0314
1465.7925	 0.0305
1467.7212	 0.0291
1469.6498	 0.0278
1471.5785	 0.0265
1473.5072	 0.0244
1475.4359	 0.0227
1477.3645	 0.0213
1479.2932	 0.0204
1481.2219	 0.0199
1483.1505	 0.0195
1485.0792	 0.0194
1487.0079	 0.0196
1488.9366	 0.0201
1490.8652	 0.0204
1492.7939	 0.0206
1494.7226	 0.0214
1496.6513	 0.0230
1498.5799	 0.0247
1500.5086	 0.0263
1502.4373	 0.0280
1504.3660	 0.0297
1506.2946	 0.0322
1508.2233	 0.0336
1510.1520	 0.0330
1512.0807	 0.0317
1514.0093	 0.0303
1515.9380	 0.0282
1517.8667	 0.0249
1519.7954	 0.0226
1521.7240	 0.0196
1523.6527	 0.0172
1525.5814	 0.0159
1527.5101	 0.0145
1529.4387	 0.0134
1531.3674	 0.0128
1533.2961	 0.0124
1535.2248	 0.0118
1537.1534	 0.0116
1539.0821	 0.0120
1541.0108	 0.0121
1542.9395	 0.0119
1544.8681	 0.0116
1546.7968	 0.0113
1548.7255	 0.0113
1550.6542	 0.0114
1552.5828	 0.0115
1554.5115	 0.0117
1556.4402	 0.0121
1558.3688	 0.0127
1560.2975	 0.0125
1562.2262	 0.0123
1564.1549	 0.0125
1566.0835	 0.0128
1568.0122	 0.0133
1569.9409	 0.0139
1571.8696	 0.0143
1573.7982	 0.0149
1575.7269	 0.0159
1577.6556	 0.0170
1579.5843	 0.0176
1581.5129	 0.0184
1583.4416	 0.0192
1585.3703	 0.0200
1587.2990	 0.0208
1589.2276	 0.0214
1591.1563	 0.0219
1593.0850	 0.0222
1595.0137	 0.0224
1596.9423	 0.0226
1598.8710	 0.0227
1600.7997	 0.0229
1602.7284	 0.0231
1604.6570	 0.0232
1606.5857	 0.0232
1608.5144	 0.0230
1610.4431	 0.0228
1612.3717	 0.0225
1614.3004	 0.0225
1616.2291	 0.0226
1618.1578	 0.0225
1620.0864	 0.0225
1622.0151	 0.0227
1623.9438	 0.0228
1625.8724	 0.0228
1627.8011	 0.0229
1629.7298	 0.0230
1631.6585	 0.0230
1633.5871	 0.0233
1635.5158	 0.0237
1637.4445	 0.0236
1639.3732	 0.0233
1641.3018	 0.0231
1643.2305	 0.0231
1645.1592	 0.0232
1647.0879	 0.0234
1649.0165	 0.0230
1650.9452	 0.0229
1652.8739	 0.0232
1654.8026	 0.0227
1656.7312	 0.0222
1658.6599	 0.0219
1660.5886	 0.0216
1662.5173	 0.0212
1664.4459	 0.0204
1666.3746	 0.0198
1668.3033	 0.0194
1670.2320	 0.0185
1672.1606	 0.0176
1674.0893	 0.0170
1676.0180	 0.0161
1677.9467	 0.0155
1679.8753	 0.0151
1681.8040	 0.0149
1683.7327	 0.0146
1685.6614	 0.0138
1687.5900	 0.0133
1689.5187	 0.0130
1691.4474	 0.0125
1693.3760	 0.0123
1695.3047	 0.0124
1697.2334	 0.0124
1699.1621	 0.0124
1701.0907	 0.0122
1703.0194	 0.0120
1704.9481	 0.0121
1706.8768	 0.0121
1708.8054	 0.0121
1710.7341	 0.0123
1712.6628	 0.0127
1714.5915	 0.0132
1716.5201	 0.0137
1718.4488	 0.0139
1720.3775	 0.0138
1722.3062	 0.0138
1724.2348	 0.0139
1726.1635	 0.0140
1728.0922	 0.0142
1730.0209	 0.0144
1731.9495	 0.0146
1733.8782	 0.0146
1735.8069	 0.0141
1737.7356	 0.0139
1739.6642	 0.0137
1741.5929	 0.0135
1743.5216	 0.0132
1745.4503	 0.0128
1747.3789	 0.0125
1749.3076	 0.0122
1751.2363	 0.0115
1753.1650	 0.0106
1755.0936	 0.0101
1757.0223	 0.0097
1758.9510	 0.0092
1760.8797	 0.0088
1762.8083	 0.0084
1764.7370	 0.0080
1766.6657	 0.0078
1768.5943	 0.0077
1770.5230	 0.0076
1772.4517	 0.0075
1774.3804	 0.0072
1776.3090	 0.0069
1778.2377	 0.0068
1780.1664	 0.0068
1782.0951	 0.0067
1784.0237	 0.0066
1785.9524	 0.0065
1787.8811	 0.0064
1789.8098	 0.0066
1791.7384	 0.0067
1793.6671	 0.0066
1795.5958	 0.0065
1797.5245	 0.0064
1799.4531	 0.0064
1801.3818	 0.0064
1803.3105	 0.0063
1805.2392	 0.0062
1807.1678	 0.0062
1809.0965	 0.0062
1811.0252	 0.0063
1812.9539	 0.0062
1814.8825	 0.0061
1816.8112	 0.0061
1818.7399	 0.0061
1820.6686	 0.0061
1822.5972	 0.0062
1824.5259	 0.0063
1826.4546	 0.0062
1828.3833	 0.0063
1830.3119	 0.0064
1832.2406	 0.0062
1834.1693	 0.0061
1836.0979	 0.0061
1838.0266	 0.0061
1839.9553	 0.0061
1841.8840	 0.0062
1843.8126	 0.0064
1845.7413	 0.0063
1847.6700	 0.0062
1849.5987	 0.0061
1851.5273	 0.0060
1853.4560	 0.0060
1855.3847	 0.0061
1857.3134	 0.0061
1859.2420	 0.0061
1861.1707	 0.0061
1863.0994	 0.0061
1865.0281	 0.0061
1866.9567	 0.0063
1868.8854	 0.0064
1870.8141	 0.0063
1872.7428	 0.0061
1874.6714	 0.0061
1876.6001	 0.0061
1878.5288	 0.0061
1880.4575	 0.0061
1882.3861	 0.0061
1884.3148	 0.0061
1886.2435	 0.0061
1888.1722	 0.0062
1890.1008	 0.0063
1892.0295	 0.0062
1893.9582	 0.0062
1895.8869	 0.0062
1897.8155	 0.0062
1899.7442	 0.0061
1901.6729	 0.0061
1903.6016	 0.0062
1905.5302	 0.0062
1907.4589	 0.0063
1909.3876	 0.0063
1911.3162	 0.0062
1913.2449	 0.0062
1915.1736	 0.0062
1917.1023	 0.0063
1919.0309	 0.0063
1920.9596	 0.0063
1922.8883	 0.0064
1924.8170	 0.0063
1926.7456	 0.0062
1928.6743	 0.0062
1930.6030	 0.0062
1932.5317	 0.0063
1934.4603	 0.0063
1936.3890	 0.0063
1938.3177	 0.0063
1940.2464	 0.0064
1942.1750	 0.0065
1944.1037	 0.0065
1946.0324	 0.0064
1947.9611	 0.0064
1949.8897	 0.0064
1951.8184	 0.0064
1953.7471	 0.0064
1955.6758	 0.0065
1957.6044	 0.0065
1959.5331	 0.0064
1961.4618	 0.0065
1963.3905	 0.0065
1965.3191	 0.0065
1967.2478	 0.0066
1969.1765	 0.0065
1971.1052	 0.0065
1973.0338	 0.0065
1974.9625	 0.0065
1976.8912	 0.0066
1978.8198	 0.0066
1980.7485	 0.0066
1982.6772	 0.0066
1984.6059	 0.0066
1986.5345	 0.0066
1988.4632	 0.0067
1990.3919	 0.0067
1992.3206	 0.0068
1994.2492	 0.0067
1996.1779	 0.0067
1998.1066	 0.0067
2000.0353	 0.0067
2001.9639	 0.0067
2003.8926	 0.0067
2005.8213	 0.0067
2007.7500	 0.0068
2009.6786	 0.0068
2011.6073	 0.0068
2013.5360	 0.0068
2015.4647	 0.0068
2017.3933	 0.0069
2019.3220	 0.0069
2021.2507	 0.0069
2023.1794	 0.0069
2025.1080	 0.0069
2027.0367	 0.0069
2028.9654	 0.0069
2030.8941	 0.0069
2032.8227	 0.0070
2034.7514	 0.0070
2036.6801	 0.0070
2038.6088	 0.0070
2040.5374	 0.0070
2042.4661	 0.0071
2044.3948	 0.0070
2046.3234	 0.0070
2048.2521	 0.0070
2050.1808	 0.0071
2052.1095	 0.0071
2054.0381	 0.0070
2055.9668	 0.0070
2057.8955	 0.0071
2059.8242	 0.0071
2061.7528	 0.0071
2063.6815	 0.0071
2065.6102	 0.0071
2067.5389	 0.0071
2069.4675	 0.0071
2071.3962	 0.0070
2073.3249	 0.0070
2075.2536	 0.0070
2077.1822	 0.0070
2079.1109	 0.0070
2081.0396	 0.0070
2082.9683	 0.0070
2084.8969	 0.0070
2086.8256	 0.0070
2088.7543	 0.0070
2090.6830	 0.0070
2092.6116	 0.0070
2094.5403	 0.0070
2096.4690	 0.0070
2098.3977	 0.0070
2100.3263	 0.0070
2102.2550	 0.0070
2104.1837	 0.0070
2106.1124	 0.0070
2108.0410	 0.0070
2109.9697	 0.0071
2111.8984	 0.0070
2113.8271	 0.0070
2115.7557	 0.0071
2117.6844	 0.0071
2119.6131	 0.0071
2121.5417	 0.0070
2123.4704	 0.0070
2125.3991	 0.0070
2127.3278	 0.0070
2129.2564	 0.0070
2131.1851	 0.0070
2133.1138	 0.0070
2135.0425	 0.0070
2136.9711	 0.0070
2138.8998	 0.0070
2140.8285	 0.0070
2142.7572	 0.0070
2144.6858	 0.0070
2146.6145	 0.0070
2148.5432	 0.0070
2150.4719	 0.0070
2152.4005	 0.0070
2154.3292	 0.0070
2156.2579	 0.0069
2158.1866	 0.0069
2160.1152	 0.0069
2162.0439	 0.0069
2163.9726	 0.0069
2165.9013	 0.0069
2167.8299	 0.0069
2169.7586	 0.0069
2171.6873	 0.0069
2173.6160	 0.0068
2175.5446	 0.0068
2177.4733	 0.0068
2179.4020	 0.0068
2181.3307	 0.0068
2183.2593	 0.0068
2185.1880	 0.0068
2187.1167	 0.0068
2189.0453	 0.0067
2190.9740	 0.0067
2192.9027	 0.0068
2194.8314	 0.0068
2196.7600	 0.0067
2198.6887	 0.0067
2200.6174	 0.0067
2202.5461	 0.0067
2204.4747	 0.0067
2206.4034	 0.0067
2208.3321	 0.0067
2210.2608	 0.0066
2212.1894	 0.0066
2214.1181	 0.0066
2216.0468	 0.0066
2217.9755	 0.0066
2219.9041	 0.0066
2221.8328	 0.0066
2223.7615	 0.0066
2225.6902	 0.0066
2227.6188	 0.0066
2229.5475	 0.0066
2231.4762	 0.0066
2233.4049	 0.0066
2235.3335	 0.0066
2237.2622	 0.0066
2239.1909	 0.0066
2241.1196	 0.0066
2243.0482	 0.0065
2244.9769	 0.0066
2246.9056	 0.0066
2248.8343	 0.0066
2250.7629	 0.0066
2252.6916	 0.0066
2254.6203	 0.0067
2256.5490	 0.0067
2258.4776	 0.0067
2260.4063	 0.0067
2262.3350	 0.0068
2264.2636	 0.0068
2266.1923	 0.0068
2268.1210	 0.0068
2270.0497	 0.0068
2271.9783	 0.0068
2273.9070	 0.0068
2275.8357	 0.0067
2277.7644	 0.0067
2279.6930	 0.0067
2281.6217	 0.0066
2283.5504	 0.0066
2285.4791	 0.0067
2287.4077	 0.0069
2289.3364	 0.0070
2291.2651	 0.0072
2293.1938	 0.0074
2295.1224	 0.0076
2297.0511	 0.0077
2298.9798	 0.0080
2300.9085	 0.0082
2302.8371	 0.0085
2304.7658	 0.0088
2306.6945	 0.0092
2308.6232	 0.0097
2310.5518	 0.0101
2312.4805	 0.0104
2314.4092	 0.0106
2316.3379	 0.0109
2318.2665	 0.0115
2320.1952	 0.0123
2322.1239	 0.0129
2324.0526	 0.0132
2325.9812	 0.0134
2327.9099	 0.0138
2329.8386	 0.0142
2331.7672	 0.0144
2333.6959	 0.0143
2335.6246	 0.0144
2337.5533	 0.0146
2339.4819	 0.0149
2341.4106	 0.0151
2343.3393	 0.0151
2345.2680	 0.0145
2347.1966	 0.0130
2349.1253	 0.0125
2351.0540	 0.0136
2352.9827	 0.0153
2354.9113	 0.0166
2356.8400	 0.0177
2358.7687	 0.0183
2360.6974	 0.0183
2362.6260	 0.0180
2364.5547	 0.0174
2366.4834	 0.0165
2368.4121	 0.0154
2370.3407	 0.0144
2372.2694	 0.0133
2374.1981	 0.0122
2376.1268	 0.0111
2378.0554	 0.0101
2379.9841	 0.0091
2381.9128	 0.0082
2383.8415	 0.0074
2385.7701	 0.0069
2387.6988	 0.0067
2389.6275	 0.0066
2391.5562	 0.0066
2393.4848	 0.0066
2395.4135	 0.0066
2397.3422	 0.0066
2399.2708	 0.0066
2401.1995	 0.0066
2403.1282	 0.0066
2405.0569	 0.0066
2406.9855	 0.0066
2408.9142	 0.0066
2410.8429	 0.0067
2412.7716	 0.0067
2414.7002	 0.0067
2416.6289	 0.0067
2418.5576	 0.0067
2420.4863	 0.0067
2422.4149	 0.0067
2424.3436	 0.0067
2426.2723	 0.0067
2428.2010	 0.0067
2430.1296	 0.0068
2432.0583	 0.0068
2433.9870	 0.0068
2435.9157	 0.0068
2437.8443	 0.0068
2439.7730	 0.0068
2441.7017	 0.0068
2443.6304	 0.0068
2445.5590	 0.0068
2447.4877	 0.0069
2449.4164	 0.0069
2451.3451	 0.0069
2453.2737	 0.0069
2455.2024	 0.0069
2457.1311	 0.0069
2459.0598	 0.0069
2460.9884	 0.0069
2462.9171	 0.0069
2464.8458	 0.0070
2466.7745	 0.0070
2468.7031	 0.0070
2470.6318	 0.0070
2472.5605	 0.0070
2474.4891	 0.0070
2476.4178	 0.0070
2478.3465	 0.0070
2480.2752	 0.0070
2482.2038	 0.0071
2484.1325	 0.0071
2486.0612	 0.0071
2487.9899	 0.0071
2489.9185	 0.0071
2491.8472	 0.0071
2493.7759	 0.0072
2495.7046	 0.0072
2497.6332	 0.0072
2499.5619	 0.0072
2501.4906	 0.0072
2503.4193	 0.0072
2505.3479	 0.0072
2507.2766	 0.0072
2509.2053	 0.0072
2511.1340	 0.0072
2513.0626	 0.0073
2514.9913	 0.0073
2516.9200	 0.0073
2518.8487	 0.0073
2520.7773	 0.0073
2522.7060	 0.0073
2524.6347	 0.0073
2526.5634	 0.0073
2528.4920	 0.0073
2530.4207	 0.0074
2532.3494	 0.0074
2534.2781	 0.0074
2536.2067	 0.0074
2538.1354	 0.0074
2540.0641	 0.0074
2541.9927	 0.0074
2543.9214	 0.0075
2545.8501	 0.0075
2547.7788	 0.0074
2549.7074	 0.0074
2551.6361	 0.0075
2553.5648	 0.0075
2555.4935	 0.0075
2557.4221	 0.0075
2559.3508	 0.0075
2561.2795	 0.0075
2563.2082	 0.0075
2565.1368	 0.0075
2567.0655	 0.0076
2568.9942	 0.0076
2570.9229	 0.0076
2572.8515	 0.0076
2574.7802	 0.0076
2576.7089	 0.0076
2578.6376	 0.0076
2580.5662	 0.0077
2582.4949	 0.0077
2584.4236	 0.0077
2586.3523	 0.0076
2588.2809	 0.0076
2590.2096	 0.0077
2592.1383	 0.0077
2594.0670	 0.0077
2595.9956	 0.0077
2597.9243	 0.0078
2599.8530	 0.0078
2601.7817	 0.0078
2603.7103	 0.0078
2605.6390	 0.0078
2607.5677	 0.0079
2609.4964	 0.0079
2611.4250	 0.0079
2613.3537	 0.0079
2615.2824	 0.0079
2617.2110	 0.0079
2619.1397	 0.0079
2621.0684	 0.0080
2622.9971	 0.0080
2624.9257	 0.0080
2626.8544	 0.0080
2628.7831	 0.0081
2630.7118	 0.0081
2632.6404	 0.0081
2634.5691	 0.0082
2636.4978	 0.0082
2638.4265	 0.0082
2640.3551	 0.0082
2642.2838	 0.0082
2644.2125	 0.0083
2646.1412	 0.0083
2648.0698	 0.0083
2649.9985	 0.0083
2651.9272	 0.0083
2653.8559	 0.0084
2655.7845	 0.0084
2657.7132	 0.0085
2659.6419	 0.0085
2661.5706	 0.0085
2663.4992	 0.0085
2665.4279	 0.0085
2667.3566	 0.0086
2669.2853	 0.0086
2671.2139	 0.0086
2673.1426	 0.0087
2675.0713	 0.0087
2677.0000	 0.0087
2678.9286	 0.0088
2680.8573	 0.0088
2682.7860	 0.0088
2684.7146	 0.0088
2686.6433	 0.0089
2688.5720	 0.0089
2690.5007	 0.0089
2692.4293	 0.0090
2694.3580	 0.0090
2696.2867	 0.0090
2698.2154	 0.0090
2700.1440	 0.0091
2702.0727	 0.0091
2704.0014	 0.0091
2705.9301	 0.0091
2707.8587	 0.0092
2709.7874	 0.0092
2711.7161	 0.0093
2713.6448	 0.0093
2715.5734	 0.0093
2717.5021	 0.0094
2719.4308	 0.0094
2721.3595	 0.0094
2723.2881	 0.0094
2725.2168	 0.0094
2727.1455	 0.0095
2729.0742	 0.0095
2731.0028	 0.0095
2732.9315	 0.0096
2734.8602	 0.0096
2736.7889	 0.0096
2738.7175	 0.0097
2740.6462	 0.0097
2742.5749	 0.0097
2744.5036	 0.0097
2746.4322	 0.0097
2748.3609	 0.0097
2750.2896	 0.0098
2752.2182	 0.0098
2754.1469	 0.0098
2756.0756	 0.0098
2758.0043	 0.0099
2759.9329	 0.0099
2761.8616	 0.0100
2763.7903	 0.0100
2765.7190	 0.0100
2767.6476	 0.0101
2769.5763	 0.0101
2771.5050	 0.0101
2773.4337	 0.0102
2775.3623	 0.0102
2777.2910	 0.0103
2779.2197	 0.0103
2781.1484	 0.0103
2783.0770	 0.0104
2785.0057	 0.0105
2786.9344	 0.0105
2788.8631	 0.0106
2790.7917	 0.0106
2792.7204	 0.0107
2794.6491	 0.0108
2796.5778	 0.0108
2798.5064	 0.0109
2800.4351	 0.0110
2802.3638	 0.0111
2804.2925	 0.0112
2806.2211	 0.0112
2808.1498	 0.0114
2810.0785	 0.0115
2812.0072	 0.0116
2813.9358	 0.0117
2815.8645	 0.0118
2817.7932	 0.0119
2819.7219	 0.0121
2821.6505	 0.0123
2823.5792	 0.0125
2825.5079	 0.0127
2827.4365	 0.0129
2829.3652	 0.0131
2831.2939	 0.0134
2833.2226	 0.0137
2835.1512	 0.0140
2837.0799	 0.0142
2839.0086	 0.0145
2840.9373	 0.0147
2842.8659	 0.0150
2844.7946	 0.0152
2846.7233	 0.0155
2848.6520	 0.0158
2850.5806	 0.0160
2852.5093	 0.0163
2854.4380	 0.0164
2856.3667	 0.0167
2858.2953	 0.0169
2860.2240	 0.0172
2862.1527	 0.0175
2864.0814	 0.0178
2866.0100	 0.0181
2867.9387	 0.0183
2869.8674	 0.0186
2871.7961	 0.0189
2873.7247	 0.0191
2875.6534	 0.0193
2877.5821	 0.0195
2879.5108	 0.0196
2881.4394	 0.0196
2883.3681	 0.0197
2885.2968	 0.0197
2887.2255	 0.0198
2889.1541	 0.0198
2891.0828	 0.0198
2893.0115	 0.0198
2894.9401	 0.0198
2896.8688	 0.0197
2898.7975	 0.0197
2900.7262	 0.0197
2902.6548	 0.0197
2904.5835	 0.0196
2906.5122	 0.0196
2908.4409	 0.0196
2910.3695	 0.0196
2912.2982	 0.0196
2914.2269	 0.0197
2916.1556	 0.0197
2918.0842	 0.0197
2920.0129	 0.0197
2921.9416	 0.0196
2923.8703	 0.0195
2925.7989	 0.0195
2927.7276	 0.0194
2929.6563	 0.0193
2931.5850	 0.0192
2933.5136	 0.0191
2935.4423	 0.0190
2937.3710	 0.0188
2939.2997	 0.0186
2941.2283	 0.0184
2943.1570	 0.0181
2945.0857	 0.0177
2947.0144	 0.0173
2948.9430	 0.0170
2950.8717	 0.0166
2952.8004	 0.0162
2954.7291	 0.0158
2956.6577	 0.0155
2958.5864	 0.0152
2960.5151	 0.0149
2962.4438	 0.0147
2964.3724	 0.0144
2966.3011	 0.0142
2968.2298	 0.0139
2970.1584	 0.0137
2972.0871	 0.0135
2974.0158	 0.0133
2975.9445	 0.0131
2977.8731	 0.0128
2979.8018	 0.0126
2981.7305	 0.0124
2983.6592	 0.0124
2985.5878	 0.0124
2987.5165	 0.0123
2989.4452	 0.0123
2991.3739	 0.0122
2993.3025	 0.0122
2995.2312	 0.0122
2997.1599	 0.0122
2999.0886	 0.0122
3001.0172	 0.0123
3002.9459	 0.0123
3004.8746	 0.0124
3006.8033	 0.0124
3008.7319	 0.0125
3010.6606	 0.0125
3012.5893	 0.0126
3014.5180	 0.0126
3016.4466	 0.0126
3018.3753	 0.0127
3020.3040	 0.0127
3022.2327	 0.0128
3024.1613	 0.0128
3026.0900	 0.0129
3028.0187	 0.0130
3029.9474	 0.0131
3031.8760	 0.0131
3033.8047	 0.0132
3035.7334	 0.0133
3037.6620	 0.0134
3039.5907	 0.0135
3041.5194	 0.0136
3043.4481	 0.0137
3045.3767	 0.0138
3047.3054	 0.0139
3049.2341	 0.0140
3051.1628	 0.0141
3053.0914	 0.0143
3055.0201	 0.0145
3056.9488	 0.0146
3058.8775	 0.0147
3060.8061	 0.0148
3062.7348	 0.0150
3064.6635	 0.0151
3066.5922	 0.0152
3068.5208	 0.0154
3070.4495	 0.0155
3072.3782	 0.0157
3074.3069	 0.0158
3076.2355	 0.0160
3078.1642	 0.0161
3080.0929	 0.0163
3082.0216	 0.0164
3083.9502	 0.0166
3085.8789	 0.0167
3087.8076	 0.0169
3089.7363	 0.0170
3091.6649	 0.0171
3093.5936	 0.0173
3095.5223	 0.0175
3097.4510	 0.0177
3099.3796	 0.0179
3101.3083	 0.0180
3103.2370	 0.0182
3105.1656	 0.0184
3107.0943	 0.0186
3109.0230	 0.0188
3110.9517	 0.0190
3112.8803	 0.0191
3114.8090	 0.0194
3116.7377	 0.0196
3118.6664	 0.0198
3120.5950	 0.0199
3122.5237	 0.0201
3124.4524	 0.0204
3126.3811	 0.0206
3128.3097	 0.0208
3130.2384	 0.0211
3132.1671	 0.0213
3134.0958	 0.0215
3136.0244	 0.0217
3137.9531	 0.0219
3139.8818	 0.0222
3141.8105	 0.0225
3143.7391	 0.0227
3145.6678	 0.0229
3147.5965	 0.0231
3149.5252	 0.0234
3151.4538	 0.0236
3153.3825	 0.0239
3155.3112	 0.0241
3157.2399	 0.0244
3159.1685	 0.0246
3161.0972	 0.0249
3163.0259	 0.0252
3164.9546	 0.0254
3166.8832	 0.0257
3168.8119	 0.0260
3170.7406	 0.0263
3172.6693	 0.0265
3174.5979	 0.0268
3176.5266	 0.0271
3178.4553	 0.0273
3180.3839	 0.0276
3182.3126	 0.0279
3184.2413	 0.0282
3186.1700	 0.0284
3188.0986	 0.0287
3190.0273	 0.0290
3191.9560	 0.0292
3193.8847	 0.0295
3195.8133	 0.0298
3197.7420	 0.0301
3199.6707	 0.0303
3201.5994	 0.0306
3203.5280	 0.0309
3205.4567	 0.0311
3207.3854	 0.0314
3209.3141	 0.0317
3211.2427	 0.0319
3213.1714	 0.0322
3215.1001	 0.0325
3217.0288	 0.0328
3218.9574	 0.0330
3220.8861	 0.0333
3222.8148	 0.0335
3224.7435	 0.0337
3226.6721	 0.0340
3228.6008	 0.0343
3230.5295	 0.0345
3232.4582	 0.0348
3234.3868	 0.0350
3236.3155	 0.0352
3238.2442	 0.0355
3240.1729	 0.0357
3242.1015	 0.0360
3244.0302	 0.0362
3245.9589	 0.0364
3247.8875	 0.0366
3249.8162	 0.0369
3251.7449	 0.0371
3253.6736	 0.0373
3255.6022	 0.0376
3257.5309	 0.0378
3259.4596	 0.0380
3261.3883	 0.0382
3263.3169	 0.0384
3265.2456	 0.0386
3267.1743	 0.0388
3269.1030	 0.0390
3271.0316	 0.0393
3272.9603	 0.0395
3274.8890	 0.0397
3276.8177	 0.0398
3278.7463	 0.0400
3280.6750	 0.0402
3282.6037	 0.0403
3284.5324	 0.0405
3286.4610	 0.0406
3288.3897	 0.0408
3290.3184	 0.0410
3292.2471	 0.0411
3294.1757	 0.0413
3296.1044	 0.0414
3298.0331	 0.0415
3299.9618	 0.0417
3301.8904	 0.0418
3303.8191	 0.0419
3305.7478	 0.0420
3307.6765	 0.0422
3309.6051	 0.0423
3311.5338	 0.0424
3313.4625	 0.0425
3315.3911	 0.0427
3317.3198	 0.0428
3319.2485	 0.0430
3321.1772	 0.0432
3323.1058	 0.0433
3325.0345	 0.0434
3326.9632	 0.0436
3328.8919	 0.0437
3330.8205	 0.0438
3332.7492	 0.0440
3334.6779	 0.0441
3336.6066	 0.0442
3338.5352	 0.0443
3340.4639	 0.0443
3342.3926	 0.0444
3344.3213	 0.0445
3346.2499	 0.0445
3348.1786	 0.0446
3350.1073	 0.0446
3352.0360	 0.0447
3353.9646	 0.0447
3355.8933	 0.0446
3357.8220	 0.0446
3359.7507	 0.0446
3361.6793	 0.0446
3363.6080	 0.0446
3365.5367	 0.0446
3367.4654	 0.0445
3369.3940	 0.0445
3371.3227	 0.0445
3373.2514	 0.0444
3375.1801	 0.0444
3377.1087	 0.0443
3379.0374	 0.0442
3380.9661	 0.0441
3382.8948	 0.0441
3384.8234	 0.0441
3386.7521	 0.0440
3388.6808	 0.0438
3390.6094	 0.0438
3392.5381	 0.0437
3394.4668	 0.0436
3396.3955	 0.0434
3398.3241	 0.0433
3400.2528	 0.0431
3402.1815	 0.0430
3404.1102	 0.0429
3406.0388	 0.0427
3407.9675	 0.0425
3409.8962	 0.0423
3411.8249	 0.0421
3413.7535	 0.0419
3415.6822	 0.0417
3417.6109	 0.0416
3419.5396	 0.0414
3421.4682	 0.0412
3423.3969	 0.0410
3425.3256	 0.0407
3427.2543	 0.0405
3429.1829	 0.0402
3431.1116	 0.0400
3433.0403	 0.0397
3434.9690	 0.0394
3436.8976	 0.0391
3438.8263	 0.0389
3440.7550	 0.0387
3442.6837	 0.0384
3444.6123	 0.0381
3446.5410	 0.0378
3448.4697	 0.0375
3450.3984	 0.0372
3452.3270	 0.0369
3454.2557	 0.0365
3456.1844	 0.0362
3458.1130	 0.0360
3460.0417	 0.0356
3461.9704	 0.0353
3463.8991	 0.0350
3465.8277	 0.0347
3467.7564	 0.0344
3469.6851	 0.0340
3471.6138	 0.0337
3473.5424	 0.0334
3475.4711	 0.0330
3477.3998	 0.0327
3479.3285	 0.0324
3481.2571	 0.0321
3483.1858	 0.0316
3485.1145	 0.0313
3487.0432	 0.0310
3488.9718	 0.0306
3490.9005	 0.0303
3492.8292	 0.0299
3494.7579	 0.0295
3496.6865	 0.0292
3498.6152	 0.0289
3500.5439	 0.0286
3502.4726	 0.0284
3504.4012	 0.0279
3506.3299	 0.0275
3508.2586	 0.0272
3510.1873	 0.0268
3512.1159	 0.0264
3514.0446	 0.0260
3515.9733	 0.0256
3517.9020	 0.0253
3519.8306	 0.0250
3521.7593	 0.0247
3523.6880	 0.0244
3525.6167	 0.0241
3527.5453	 0.0238
3529.4740	 0.0234
3531.4027	 0.0229
3533.3313	 0.0225
3535.2600	 0.0222
3537.1887	 0.0218
3539.1174	 0.0214
3541.0460	 0.0211
3542.9747	 0.0209
3544.9034	 0.0207
3546.8321	 0.0203
3548.7607	 0.0198
3550.6894	 0.0195
3552.6181	 0.0191
3554.5468	 0.0187
3556.4754	 0.0183
3558.4041	 0.0180
3560.3328	 0.0178
3562.2615	 0.0174
3564.1901	 0.0173
3566.1188	 0.0173
3568.0475	 0.0168
3569.9762	 0.0160
3571.9048	 0.0156
3573.8335	 0.0152
3575.7622	 0.0149
3577.6909	 0.0147
3579.6195	 0.0144
3581.5482	 0.0141
3583.4769	 0.0139
3585.4056	 0.0139
3587.3342	 0.0138
3589.2629	 0.0132
3591.1916	 0.0128
3593.1203	 0.0126
3595.0489	 0.0124
3596.9776	 0.0121
3598.9063	 0.0118
3600.8349	 0.0116
3602.7636	 0.0112
3604.6923	 0.0109
3606.6210	 0.0108
3608.5496	 0.0106
3610.4783	 0.0102
3612.4070	 0.0100
3614.3357	 0.0097
3616.2643	 0.0095
3618.1930	 0.0094
3620.1217	 0.0091
3622.0504	 0.0087
3623.9790	 0.0085
3625.9077	 0.0085
3627.8364	 0.0088
3629.7651	 0.0084
3631.6937	 0.0078
3633.6224	 0.0074
3635.5511	 0.0071
3637.4798	 0.0068
3639.4084	 0.0066
3641.3371	 0.0064
3643.2658	 0.0062
3645.1945	 0.0062
3647.1231	 0.0064
3649.0518	 0.0065
3650.9805	 0.0060
3652.9092	 0.0054
3654.8378	 0.0052
3656.7665	 0.0051
3658.6952	 0.0048
3660.6239	 0.0046
3662.5525	 0.0044
3664.4812	 0.0044
3666.4099	 0.0043
3668.3385	 0.0045
3670.2672	 0.0047
3672.1959	 0.0044
3674.1246	 0.0045
3676.0532	 0.0046
3677.9819	 0.0043
3679.9106	 0.0041
3681.8393	 0.0039
3683.7679	 0.0038
3685.6966	 0.0039
3687.6253	 0.0041
3689.5540	 0.0044
3691.4826	 0.0043
3693.4113	 0.0040
3695.3400	 0.0039
3697.2687	 0.0039
3699.1973	 0.0039
3701.1260	 0.0040
3703.0547	 0.0040
3704.9834	 0.0039
3706.9120	 0.0039
3708.8407	 0.0041
3710.7694	 0.0043
3712.6981	 0.0041
3714.6267	 0.0037
3716.5554	 0.0036
3718.4841	 0.0038
3720.4128	 0.0040
3722.3414	 0.0043
3724.2701	 0.0044
3726.1988	 0.0044
3728.1275	 0.0042
3730.0561	 0.0041
3731.9848	 0.0043
3733.9135	 0.0047
3735.8422	 0.0047
3737.7708	 0.0042
3739.6995	 0.0040
3741.6282	 0.0039
3743.5568	 0.0040
3745.4855	 0.0040
3747.4142	 0.0038
3749.3429	 0.0040
3751.2715	 0.0042
3753.2002	 0.0039
3755.1289	 0.0036
3757.0576	 0.0036
3758.9862	 0.0036
3760.9149	 0.0035
3762.8436	 0.0034
3764.7723	 0.0035
3766.7009	 0.0035
3768.6296	 0.0035
3770.5583	 0.0035
3772.4870	 0.0034
3774.4156	 0.0032
3776.3443	 0.0032
3778.2730	 0.0034
3780.2017	 0.0034
3782.1303	 0.0033
3784.0590	 0.0033
3785.9877	 0.0034
3787.9164	 0.0033
3789.8450	 0.0032
3791.7737	 0.0032
3793.7024	 0.0033
3795.6311	 0.0035
3797.5597	 0.0036
3799.4884	 0.0036
3801.4171	 0.0038
3803.3458	 0.0036
3805.2744	 0.0034
3807.2031	 0.0035
3809.1318	 0.0034
3811.0604	 0.0033
3812.9891	 0.0033
3814.9178	 0.0035
3816.8465	 0.0036
3818.7751	 0.0037
3820.7038	 0.0038
3822.6325	 0.0037
3824.5612	 0.0036
3826.4898	 0.0036
3828.4185	 0.0035
3830.3472	 0.0035
3832.2759	 0.0035
3834.2045	 0.0035
3836.1332	 0.0036
3838.0619	 0.0038
3839.9906	 0.0038
3841.9192	 0.0037
3843.8479	 0.0036
3845.7766	 0.0034
3847.7053	 0.0034
3849.6339	 0.0035
3851.5626	 0.0038
3853.4913	 0.0042
3855.4200	 0.0039
3857.3486	 0.0036
3859.2773	 0.0035
3861.2060	 0.0036
3863.1347	 0.0038
3865.0633	 0.0038
3866.9920	 0.0036
3868.9207	 0.0038
3870.8494	 0.0039
3872.7780	 0.0038
3874.7067	 0.0036
3876.6354	 0.0034
3878.5641	 0.0035
3880.4927	 0.0038
3882.4214	 0.0038
3884.3501	 0.0037
3886.2787	 0.0037
3888.2074	 0.0035
3890.1361	 0.0036
3892.0648	 0.0037
3893.9934	 0.0035
3895.9221	 0.0035
3897.8508	 0.0037
3899.7795	 0.0039
3901.7081	 0.0040
3903.6368	 0.0040
3905.5655	 0.0038
3907.4942	 0.0035
3909.4228	 0.0034
3911.3515	 0.0034
3913.2802	 0.0034
3915.2089	 0.0035
3917.1375	 0.0037
3919.0662	 0.0037
3920.9949	 0.0036
3922.9236	 0.0036
3924.8522	 0.0037
3926.7809	 0.0036
3928.7096	 0.0036
3930.6383	 0.0037
3932.5669	 0.0037
3934.4956	 0.0035
3936.4243	 0.0034
3938.3530	 0.0035
3940.2816	 0.0036
3942.2103	 0.0037
3944.1390	 0.0036
3946.0677	 0.0035
3947.9963	 0.0036
3949.9250	 0.0037
3951.8537	 0.0036
3953.7823	 0.0035
3955.7110	 0.0035
3957.6397	 0.0035
3959.5684	 0.0035
3961.4970	 0.0036
3963.4257	 0.0036
3965.3544	 0.0035
3967.2831	 0.0035
3969.2117	 0.0035
3971.1404	 0.0035
3973.0691	 0.0035
3974.9978	 0.0035
3976.9264	 0.0035
3978.8551	 0.0035
3980.7838	 0.0035
3982.7125	 0.0035
3984.6411	 0.0034
3986.5698	 0.0034
3988.4985	 0.0035
3990.4272	 0.0035
3992.3558	 0.0035
3994.2845	 0.0035
3996.2132	 0.0036
3998.1419	 0.0035
4000.0705	 0.0035
Filename=J127 Grinded
ObjectID=3EE355A2-51EE-4838-B84B-0FFC8211C032
Operator=VU
Department=FALW
