DATATYPE	 IR Spectrum
XYUNITS	 Wavenumber;Absorbance
DECIMALSYMBOL	 .
599.8177	 0.0703
601.7464	 0.0698
603.6751	 0.0688
605.6037	 0.0681
607.5324	 0.0675
609.4611	 0.0666
611.3898	 0.0660
613.3184	 0.0651
615.2471	 0.0639
617.1758	 0.0632
619.1045	 0.0625
621.0331	 0.0613
622.9618	 0.0601
624.8905	 0.0590
626.8192	 0.0583
628.7478	 0.0582
630.6765	 0.0577
632.6052	 0.0573
634.5339	 0.0572
636.4625	 0.0570
638.3912	 0.0566
640.3199	 0.0561
642.2485	 0.0554
644.1772	 0.0550
646.1059	 0.0551
648.0346	 0.0547
649.9632	 0.0543
651.8919	 0.0540
653.8206	 0.0537
655.7493	 0.0534
657.6779	 0.0533
659.6066	 0.0534
661.5353	 0.0533
663.4640	 0.0528
665.3926	 0.0524
667.3213	 0.0524
669.2500	 0.0513
671.1787	 0.0503
673.1073	 0.0493
675.0360	 0.0482
676.9647	 0.0471
678.8934	 0.0461
680.8220	 0.0452
682.7507	 0.0444
684.6794	 0.0437
686.6081	 0.0432
688.5367	 0.0428
690.4654	 0.0423
692.3941	 0.0420
694.3228	 0.0418
696.2514	 0.0415
698.1801	 0.0411
700.1088	 0.0409
702.0375	 0.0406
703.9661	 0.0403
705.8948	 0.0401
707.8235	 0.0400
709.7521	 0.0396
711.6808	 0.0393
713.6095	 0.0389
715.5382	 0.0385
717.4668	 0.0382
719.3955	 0.0379
721.3242	 0.0374
723.2529	 0.0370
725.1815	 0.0367
727.1102	 0.0364
729.0389	 0.0359
730.9676	 0.0355
732.8962	 0.0351
734.8249	 0.0348
736.7536	 0.0345
738.6823	 0.0341
740.6109	 0.0337
742.5396	 0.0334
744.4683	 0.0332
746.3970	 0.0330
748.3256	 0.0327
750.2543	 0.0323
752.1830	 0.0320
754.1117	 0.0318
756.0403	 0.0315
757.9690	 0.0311
759.8977	 0.0307
761.8264	 0.0303
763.7550	 0.0300
765.6837	 0.0298
767.6124	 0.0295
769.5411	 0.0292
771.4697	 0.0289
773.3984	 0.0287
775.3271	 0.0285
777.2557	 0.0282
779.1844	 0.0280
781.1131	 0.0278
783.0418	 0.0276
784.9704	 0.0276
786.8991	 0.0274
788.8278	 0.0273
790.7565	 0.0272
792.6851	 0.0271
794.6138	 0.0271
796.5425	 0.0271
798.4712	 0.0269
800.3998	 0.0267
802.3285	 0.0267
804.2572	 0.0266
806.1859	 0.0266
808.1145	 0.0266
810.0432	 0.0266
811.9719	 0.0266
813.9006	 0.0266
815.8292	 0.0267
817.7579	 0.0268
819.6866	 0.0269
821.6153	 0.0270
823.5439	 0.0271
825.4726	 0.0272
827.4013	 0.0273
829.3300	 0.0274
831.2586	 0.0274
833.1873	 0.0273
835.1160	 0.0272
837.0447	 0.0271
838.9733	 0.0269
840.9020	 0.0267
842.8307	 0.0265
844.7594	 0.0264
846.6880	 0.0262
848.6167	 0.0260
850.5454	 0.0258
852.4740	 0.0256
854.4027	 0.0255
856.3314	 0.0254
858.2601	 0.0254
860.1887	 0.0255
862.1174	 0.0256
864.0461	 0.0259
865.9748	 0.0262
867.9034	 0.0265
869.8321	 0.0267
871.7608	 0.0270
873.6895	 0.0271
875.6181	 0.0273
877.5468	 0.0275
879.4755	 0.0277
881.4042	 0.0280
883.3328	 0.0284
885.2615	 0.0290
887.1902	 0.0296
889.1189	 0.0304
891.0475	 0.0313
892.9762	 0.0321
894.9049	 0.0326
896.8336	 0.0329
898.7622	 0.0327
900.6909	 0.0322
902.6196	 0.0315
904.5483	 0.0307
906.4769	 0.0300
908.4056	 0.0295
910.3343	 0.0291
912.2630	 0.0289
914.1916	 0.0288
916.1203	 0.0287
918.0490	 0.0287
919.9776	 0.0288
921.9063	 0.0289
923.8350	 0.0290
925.7637	 0.0291
927.6923	 0.0292
929.6210	 0.0293
931.5497	 0.0294
933.4784	 0.0294
935.4070	 0.0295
937.3357	 0.0297
939.2644	 0.0301
941.1931	 0.0306
943.1217	 0.0312
945.0504	 0.0320
946.9791	 0.0329
948.9078	 0.0340
950.8364	 0.0352
952.7651	 0.0366
954.6938	 0.0380
956.6225	 0.0396
958.5511	 0.0411
960.4798	 0.0426
962.4085	 0.0442
964.3372	 0.0458
966.2658	 0.0474
968.1945	 0.0490
970.1232	 0.0506
972.0519	 0.0523
973.9805	 0.0542
975.9092	 0.0563
977.8379	 0.0586
979.7666	 0.0612
981.6952	 0.0638
983.6239	 0.0665
985.5526	 0.0691
987.4812	 0.0714
989.4099	 0.0734
991.3386	 0.0750
993.2673	 0.0761
995.1959	 0.0769
997.1246	 0.0775
999.0533	 0.0781
1000.9820	 0.0790
1002.9106	 0.0801
1004.8393	 0.0815
1006.7680	 0.0832
1008.6967	 0.0854
1010.6253	 0.0879
1012.5540	 0.0908
1014.4827	 0.0937
1016.4114	 0.0964
1018.3400	 0.0988
1020.2687	 0.1007
1022.1974	 0.1024
1024.1261	 0.1037
1026.0547	 0.1047
1027.9834	 0.1057
1029.9121	 0.1066
1031.8408	 0.1072
1033.7694	 0.1076
1035.6981	 0.1076
1037.6268	 0.1073
1039.5555	 0.1068
1041.4841	 0.1061
1043.4128	 0.1052
1045.3415	 0.1042
1047.2702	 0.1029
1049.1988	 0.1013
1051.1275	 0.0993
1053.0562	 0.0973
1054.9849	 0.0950
1056.9135	 0.0928
1058.8422	 0.0905
1060.7709	 0.0883
1062.6995	 0.0860
1064.6282	 0.0840
1066.5569	 0.0822
1068.4856	 0.0805
1070.4142	 0.0791
1072.3429	 0.0777
1074.2716	 0.0763
1076.2003	 0.0749
1078.1289	 0.0734
1080.0576	 0.0719
1081.9863	 0.0705
1083.9150	 0.0693
1085.8436	 0.0682
1087.7723	 0.0670
1089.7010	 0.0658
1091.6297	 0.0646
1093.5583	 0.0635
1095.4870	 0.0624
1097.4157	 0.0615
1099.3444	 0.0608
1101.2730	 0.0601
1103.2017	 0.0595
1105.1304	 0.0590
1107.0591	 0.0586
1108.9877	 0.0583
1110.9164	 0.0579
1112.8451	 0.0574
1114.7738	 0.0569
1116.7024	 0.0564
1118.6311	 0.0558
1120.5598	 0.0551
1122.4885	 0.0541
1124.4171	 0.0529
1126.3458	 0.0512
1128.2745	 0.0491
1130.2031	 0.0467
1132.1318	 0.0441
1134.0605	 0.0415
1135.9892	 0.0392
1137.9178	 0.0373
1139.8465	 0.0361
1141.7752	 0.0353
1143.7039	 0.0351
1145.6325	 0.0351
1147.5612	 0.0355
1149.4899	 0.0359
1151.4186	 0.0363
1153.3472	 0.0366
1155.2759	 0.0367
1157.2046	 0.0365
1159.1333	 0.0359
1161.0619	 0.0351
1162.9906	 0.0339
1164.9193	 0.0324
1166.8480	 0.0308
1168.7766	 0.0291
1170.7053	 0.0275
1172.6340	 0.0260
1174.5627	 0.0248
1176.4913	 0.0238
1178.4200	 0.0230
1180.3487	 0.0224
1182.2774	 0.0220
1184.2060	 0.0216
1186.1347	 0.0214
1188.0634	 0.0214
1189.9921	 0.0215
1191.9207	 0.0217
1193.8494	 0.0221
1195.7781	 0.0227
1197.7068	 0.0234
1199.6354	 0.0241
1201.5641	 0.0250
1203.4928	 0.0259
1205.4214	 0.0269
1207.3501	 0.0280
1209.2788	 0.0292
1211.2075	 0.0305
1213.1361	 0.0317
1215.0648	 0.0330
1216.9935	 0.0343
1218.9222	 0.0355
1220.8508	 0.0366
1222.7795	 0.0376
1224.7082	 0.0385
1226.6369	 0.0394
1228.5655	 0.0401
1230.4942	 0.0405
1232.4229	 0.0408
1234.3516	 0.0410
1236.2802	 0.0410
1238.2089	 0.0409
1240.1376	 0.0406
1242.0663	 0.0402
1243.9949	 0.0397
1245.9236	 0.0389
1247.8523	 0.0381
1249.7810	 0.0373
1251.7096	 0.0364
1253.6383	 0.0354
1255.5670	 0.0345
1257.4957	 0.0335
1259.4243	 0.0326
1261.3530	 0.0316
1263.2817	 0.0307
1265.2104	 0.0297
1267.1390	 0.0288
1269.0677	 0.0279
1270.9964	 0.0269
1272.9250	 0.0260
1274.8537	 0.0250
1276.7824	 0.0242
1278.7111	 0.0234
1280.6397	 0.0227
1282.5684	 0.0221
1284.4971	 0.0216
1286.4258	 0.0212
1288.3544	 0.0209
1290.2831	 0.0207
1292.2118	 0.0206
1294.1405	 0.0206
1296.0691	 0.0208
1297.9978	 0.0210
1299.9265	 0.0212
1301.8552	 0.0215
1303.7838	 0.0219
1305.7125	 0.0223
1307.6412	 0.0228
1309.5699	 0.0232
1311.4985	 0.0237
1313.4272	 0.0242
1315.3559	 0.0246
1317.2846	 0.0251
1319.2132	 0.0255
1321.1419	 0.0259
1323.0706	 0.0262
1324.9993	 0.0264
1326.9279	 0.0264
1328.8566	 0.0264
1330.7853	 0.0262
1332.7140	 0.0258
1334.6426	 0.0254
1336.5713	 0.0250
1338.5000	 0.0245
1340.4286	 0.0241
1342.3573	 0.0237
1344.2860	 0.0234
1346.2147	 0.0232
1348.1433	 0.0231
1350.0720	 0.0231
1352.0007	 0.0232
1353.9294	 0.0234
1355.8580	 0.0237
1357.7867	 0.0242
1359.7154	 0.0247
1361.6441	 0.0253
1363.5727	 0.0258
1365.5014	 0.0261
1367.4301	 0.0264
1369.3588	 0.0266
1371.2874	 0.0268
1373.2161	 0.0268
1375.1448	 0.0265
1377.0735	 0.0260
1379.0021	 0.0253
1380.9308	 0.0244
1382.8595	 0.0235
1384.7882	 0.0227
1386.7168	 0.0220
1388.6455	 0.0212
1390.5742	 0.0207
1392.5029	 0.0205
1394.4315	 0.0203
1396.3602	 0.0201
1398.2889	 0.0201
1400.2176	 0.0201
1402.1462	 0.0202
1404.0749	 0.0204
1406.0036	 0.0207
1407.9323	 0.0211
1409.8609	 0.0216
1411.7896	 0.0222
1413.7183	 0.0228
1415.6469	 0.0235
1417.5756	 0.0241
1419.5043	 0.0244
1421.4330	 0.0244
1423.3616	 0.0243
1425.2903	 0.0238
1427.2190	 0.0231
1429.1477	 0.0224
1431.0763	 0.0215
1433.0050	 0.0208
1434.9337	 0.0203
1436.8624	 0.0196
1438.7910	 0.0192
1440.7197	 0.0191
1442.6484	 0.0192
1444.5771	 0.0194
1446.5057	 0.0198
1448.4344	 0.0203
1450.3631	 0.0207
1452.2918	 0.0212
1454.2204	 0.0216
1456.1491	 0.0219
1458.0778	 0.0220
1460.0065	 0.0219
1461.9351	 0.0218
1463.8638	 0.0214
1465.7925	 0.0205
1467.7212	 0.0195
1469.6498	 0.0185
1471.5785	 0.0174
1473.5072	 0.0159
1475.4359	 0.0148
1477.3645	 0.0138
1479.2932	 0.0132
1481.2219	 0.0128
1483.1505	 0.0125
1485.0792	 0.0125
1487.0079	 0.0127
1488.9366	 0.0130
1490.8652	 0.0134
1492.7939	 0.0138
1494.7226	 0.0143
1496.6513	 0.0151
1498.5799	 0.0157
1500.5086	 0.0161
1502.4373	 0.0164
1504.3660	 0.0166
1506.2946	 0.0164
1508.2233	 0.0155
1510.1520	 0.0148
1512.0807	 0.0140
1514.0093	 0.0133
1515.9380	 0.0126
1517.8667	 0.0119
1519.7954	 0.0114
1521.7240	 0.0108
1523.6527	 0.0102
1525.5814	 0.0099
1527.5101	 0.0097
1529.4387	 0.0095
1531.3674	 0.0094
1533.2961	 0.0093
1535.2248	 0.0092
1537.1534	 0.0093
1539.0821	 0.0094
1541.0108	 0.0093
1542.9395	 0.0093
1544.8681	 0.0093
1546.7968	 0.0093
1548.7255	 0.0094
1550.6542	 0.0094
1552.5828	 0.0095
1554.5115	 0.0097
1556.4402	 0.0099
1558.3688	 0.0102
1560.2975	 0.0102
1562.2262	 0.0102
1564.1549	 0.0103
1566.0835	 0.0106
1568.0122	 0.0109
1569.9409	 0.0113
1571.8696	 0.0116
1573.7982	 0.0120
1575.7269	 0.0126
1577.6556	 0.0133
1579.5843	 0.0139
1581.5129	 0.0146
1583.4416	 0.0155
1585.3703	 0.0164
1587.2990	 0.0173
1589.2276	 0.0180
1591.1563	 0.0185
1593.0850	 0.0188
1595.0137	 0.0186
1596.9423	 0.0182
1598.8710	 0.0177
1600.7997	 0.0173
1602.7284	 0.0169
1604.6570	 0.0166
1606.5857	 0.0163
1608.5144	 0.0161
1610.4431	 0.0160
1612.3717	 0.0158
1614.3004	 0.0159
1616.2291	 0.0159
1618.1578	 0.0157
1620.0864	 0.0157
1622.0151	 0.0157
1623.9438	 0.0157
1625.8724	 0.0156
1627.8011	 0.0156
1629.7298	 0.0156
1631.6585	 0.0157
1633.5871	 0.0158
1635.5158	 0.0158
1637.4445	 0.0157
1639.3732	 0.0156
1641.3018	 0.0156
1643.2305	 0.0157
1645.1592	 0.0158
1647.0879	 0.0157
1649.0165	 0.0156
1650.9452	 0.0157
1652.8739	 0.0157
1654.8026	 0.0151
1656.7312	 0.0149
1658.6599	 0.0147
1660.5886	 0.0146
1662.5173	 0.0144
1664.4459	 0.0140
1666.3746	 0.0138
1668.3033	 0.0135
1670.2320	 0.0132
1672.1606	 0.0129
1674.0893	 0.0126
1676.0180	 0.0122
1677.9467	 0.0119
1679.8753	 0.0117
1681.8040	 0.0117
1683.7327	 0.0115
1685.6614	 0.0111
1687.5900	 0.0109
1689.5187	 0.0108
1691.4474	 0.0107
1693.3760	 0.0108
1695.3047	 0.0109
1697.2334	 0.0109
1699.1621	 0.0111
1701.0907	 0.0112
1703.0194	 0.0114
1704.9481	 0.0117
1706.8768	 0.0121
1708.8054	 0.0125
1710.7341	 0.0131
1712.6628	 0.0137
1714.5915	 0.0145
1716.5201	 0.0153
1718.4488	 0.0160
1720.3775	 0.0166
1722.3062	 0.0172
1724.2348	 0.0179
1726.1635	 0.0184
1728.0922	 0.0189
1730.0209	 0.0193
1731.9495	 0.0197
1733.8782	 0.0197
1735.8069	 0.0195
1737.7356	 0.0195
1739.6642	 0.0191
1741.5929	 0.0186
1743.5216	 0.0180
1745.4503	 0.0173
1747.3789	 0.0166
1749.3076	 0.0158
1751.2363	 0.0148
1753.1650	 0.0139
1755.0936	 0.0132
1757.0223	 0.0123
1758.9510	 0.0115
1760.8797	 0.0108
1762.8083	 0.0099
1764.7370	 0.0093
1766.6657	 0.0088
1768.5943	 0.0083
1770.5230	 0.0079
1772.4517	 0.0075
1774.3804	 0.0072
1776.3090	 0.0069
1778.2377	 0.0068
1780.1664	 0.0066
1782.0951	 0.0065
1784.0237	 0.0064
1785.9524	 0.0063
1787.8811	 0.0062
1789.8098	 0.0062
1791.7384	 0.0062
1793.6671	 0.0060
1795.5958	 0.0059
1797.5245	 0.0059
1799.4531	 0.0059
1801.3818	 0.0059
1803.3105	 0.0058
1805.2392	 0.0057
1807.1678	 0.0057
1809.0965	 0.0057
1811.0252	 0.0057
1812.9539	 0.0057
1814.8825	 0.0056
1816.8112	 0.0056
1818.7399	 0.0056
1820.6686	 0.0056
1822.5972	 0.0056
1824.5259	 0.0056
1826.4546	 0.0056
1828.3833	 0.0056
1830.3119	 0.0056
1832.2406	 0.0055
1834.1693	 0.0055
1836.0979	 0.0055
1838.0266	 0.0055
1839.9553	 0.0055
1841.8840	 0.0056
1843.8126	 0.0056
1845.7413	 0.0055
1847.6700	 0.0055
1849.5987	 0.0056
1851.5273	 0.0055
1853.4560	 0.0055
1855.3847	 0.0055
1857.3134	 0.0055
1859.2420	 0.0055
1861.1707	 0.0055
1863.0994	 0.0055
1865.0281	 0.0055
1866.9567	 0.0056
1868.8854	 0.0056
1870.8141	 0.0055
1872.7428	 0.0055
1874.6714	 0.0055
1876.6001	 0.0055
1878.5288	 0.0055
1880.4575	 0.0055
1882.3861	 0.0055
1884.3148	 0.0056
1886.2435	 0.0056
1888.1722	 0.0056
1890.1008	 0.0056
1892.0295	 0.0056
1893.9582	 0.0056
1895.8869	 0.0056
1897.8155	 0.0056
1899.7442	 0.0056
1901.6729	 0.0056
1903.6016	 0.0056
1905.5302	 0.0056
1907.4589	 0.0057
1909.3876	 0.0057
1911.3162	 0.0056
1913.2449	 0.0056
1915.1736	 0.0057
1917.1023	 0.0057
1919.0309	 0.0057
1920.9596	 0.0057
1922.8883	 0.0057
1924.8170	 0.0057
1926.7456	 0.0057
1928.6743	 0.0057
1930.6030	 0.0057
1932.5317	 0.0057
1934.4603	 0.0057
1936.3890	 0.0057
1938.3177	 0.0057
1940.2464	 0.0058
1942.1750	 0.0058
1944.1037	 0.0058
1946.0324	 0.0058
1947.9611	 0.0058
1949.8897	 0.0058
1951.8184	 0.0058
1953.7471	 0.0058
1955.6758	 0.0058
1957.6044	 0.0058
1959.5331	 0.0058
1961.4618	 0.0058
1963.3905	 0.0058
1965.3191	 0.0058
1967.2478	 0.0058
1969.1765	 0.0058
1971.1052	 0.0058
1973.0338	 0.0058
1974.9625	 0.0058
1976.8912	 0.0058
1978.8198	 0.0059
1980.7485	 0.0059
1982.6772	 0.0058
1984.6059	 0.0058
1986.5345	 0.0059
1988.4632	 0.0059
1990.3919	 0.0059
1992.3206	 0.0059
1994.2492	 0.0059
1996.1779	 0.0059
1998.1066	 0.0059
2000.0353	 0.0059
2001.9639	 0.0059
2003.8926	 0.0059
2005.8213	 0.0059
2007.7500	 0.0059
2009.6786	 0.0059
2011.6073	 0.0059
2013.5360	 0.0059
2015.4647	 0.0060
2017.3933	 0.0060
2019.3220	 0.0060
2021.2507	 0.0060
2023.1794	 0.0060
2025.1080	 0.0060
2027.0367	 0.0060
2028.9654	 0.0060
2030.8941	 0.0060
2032.8227	 0.0060
2034.7514	 0.0060
2036.6801	 0.0060
2038.6088	 0.0060
2040.5374	 0.0060
2042.4661	 0.0061
2044.3948	 0.0061
2046.3234	 0.0061
2048.2521	 0.0061
2050.1808	 0.0061
2052.1095	 0.0061
2054.0381	 0.0061
2055.9668	 0.0061
2057.8955	 0.0061
2059.8242	 0.0061
2061.7528	 0.0061
2063.6815	 0.0061
2065.6102	 0.0061
2067.5389	 0.0061
2069.4675	 0.0061
2071.3962	 0.0061
2073.3249	 0.0061
2075.2536	 0.0061
2077.1822	 0.0061
2079.1109	 0.0061
2081.0396	 0.0061
2082.9683	 0.0061
2084.8969	 0.0061
2086.8256	 0.0061
2088.7543	 0.0061
2090.6830	 0.0061
2092.6116	 0.0061
2094.5403	 0.0062
2096.4690	 0.0061
2098.3977	 0.0061
2100.3263	 0.0061
2102.2550	 0.0061
2104.1837	 0.0062
2106.1124	 0.0062
2108.0410	 0.0061
2109.9697	 0.0061
2111.8984	 0.0061
2113.8271	 0.0061
2115.7557	 0.0062
2117.6844	 0.0062
2119.6131	 0.0061
2121.5417	 0.0061
2123.4704	 0.0062
2125.3991	 0.0062
2127.3278	 0.0062
2129.2564	 0.0062
2131.1851	 0.0062
2133.1138	 0.0062
2135.0425	 0.0062
2136.9711	 0.0062
2138.8998	 0.0062
2140.8285	 0.0062
2142.7572	 0.0062
2144.6858	 0.0062
2146.6145	 0.0061
2148.5432	 0.0062
2150.4719	 0.0061
2152.4005	 0.0061
2154.3292	 0.0061
2156.2579	 0.0061
2158.1866	 0.0061
2160.1152	 0.0061
2162.0439	 0.0061
2163.9726	 0.0061
2165.9013	 0.0061
2167.8299	 0.0061
2169.7586	 0.0061
2171.6873	 0.0061
2173.6160	 0.0061
2175.5446	 0.0061
2177.4733	 0.0060
2179.4020	 0.0060
2181.3307	 0.0060
2183.2593	 0.0060
2185.1880	 0.0060
2187.1167	 0.0060
2189.0453	 0.0060
2190.9740	 0.0060
2192.9027	 0.0060
2194.8314	 0.0059
2196.7600	 0.0059
2198.6887	 0.0060
2200.6174	 0.0060
2202.5461	 0.0060
2204.4747	 0.0060
2206.4034	 0.0060
2208.3321	 0.0059
2210.2608	 0.0059
2212.1894	 0.0059
2214.1181	 0.0059
2216.0468	 0.0059
2217.9755	 0.0060
2219.9041	 0.0060
2221.8328	 0.0059
2223.7615	 0.0060
2225.6902	 0.0060
2227.6188	 0.0060
2229.5475	 0.0059
2231.4762	 0.0059
2233.4049	 0.0059
2235.3335	 0.0059
2237.2622	 0.0060
2239.1909	 0.0060
2241.1196	 0.0060
2243.0482	 0.0060
2244.9769	 0.0060
2246.9056	 0.0060
2248.8343	 0.0060
2250.7629	 0.0060
2252.6916	 0.0060
2254.6203	 0.0060
2256.5490	 0.0060
2258.4776	 0.0060
2260.4063	 0.0060
2262.3350	 0.0060
2264.2636	 0.0060
2266.1923	 0.0060
2268.1210	 0.0060
2270.0497	 0.0060
2271.9783	 0.0060
2273.9070	 0.0060
2275.8357	 0.0060
2277.7644	 0.0060
2279.6930	 0.0060
2281.6217	 0.0060
2283.5504	 0.0060
2285.4791	 0.0060
2287.4077	 0.0061
2289.3364	 0.0061
2291.2651	 0.0061
2293.1938	 0.0062
2295.1224	 0.0062
2297.0511	 0.0062
2298.9798	 0.0063
2300.9085	 0.0064
2302.8371	 0.0064
2304.7658	 0.0065
2306.6945	 0.0067
2308.6232	 0.0068
2310.5518	 0.0069
2312.4805	 0.0070
2314.4092	 0.0070
2316.3379	 0.0071
2318.2665	 0.0073
2320.1952	 0.0075
2322.1239	 0.0077
2324.0526	 0.0078
2325.9812	 0.0079
2327.9099	 0.0080
2329.8386	 0.0081
2331.7672	 0.0082
2333.6959	 0.0082
2335.6246	 0.0083
2337.5533	 0.0083
2339.4819	 0.0084
2341.4106	 0.0084
2343.3393	 0.0084
2345.2680	 0.0082
2347.1966	 0.0078
2349.1253	 0.0076
2351.0540	 0.0079
2352.9827	 0.0085
2354.9113	 0.0088
2356.8400	 0.0091
2358.7687	 0.0092
2360.6974	 0.0092
2362.6260	 0.0092
2364.5547	 0.0091
2366.4834	 0.0088
2368.4121	 0.0085
2370.3407	 0.0081
2372.2694	 0.0078
2374.1981	 0.0075
2376.1268	 0.0072
2378.0554	 0.0069
2379.9841	 0.0067
2381.9128	 0.0065
2383.8415	 0.0063
2385.7701	 0.0061
2387.6988	 0.0060
2389.6275	 0.0060
2391.5562	 0.0060
2393.4848	 0.0061
2395.4135	 0.0061
2397.3422	 0.0061
2399.2708	 0.0061
2401.1995	 0.0060
2403.1282	 0.0061
2405.0569	 0.0061
2406.9855	 0.0061
2408.9142	 0.0061
2410.8429	 0.0061
2412.7716	 0.0061
2414.7002	 0.0061
2416.6289	 0.0061
2418.5576	 0.0061
2420.4863	 0.0061
2422.4149	 0.0061
2424.3436	 0.0061
2426.2723	 0.0062
2428.2010	 0.0062
2430.1296	 0.0062
2432.0583	 0.0062
2433.9870	 0.0062
2435.9157	 0.0062
2437.8443	 0.0062
2439.7730	 0.0062
2441.7017	 0.0062
2443.6304	 0.0062
2445.5590	 0.0062
2447.4877	 0.0062
2449.4164	 0.0062
2451.3451	 0.0062
2453.2737	 0.0062
2455.2024	 0.0062
2457.1311	 0.0062
2459.0598	 0.0063
2460.9884	 0.0063
2462.9171	 0.0063
2464.8458	 0.0062
2466.7745	 0.0062
2468.7031	 0.0063
2470.6318	 0.0063
2472.5605	 0.0063
2474.4891	 0.0063
2476.4178	 0.0063
2478.3465	 0.0063
2480.2752	 0.0063
2482.2038	 0.0063
2484.1325	 0.0063
2486.0612	 0.0063
2487.9899	 0.0063
2489.9185	 0.0063
2491.8472	 0.0063
2493.7759	 0.0063
2495.7046	 0.0063
2497.6332	 0.0063
2499.5619	 0.0063
2501.4906	 0.0064
2503.4193	 0.0064
2505.3479	 0.0064
2507.2766	 0.0064
2509.2053	 0.0064
2511.1340	 0.0063
2513.0626	 0.0063
2514.9913	 0.0064
2516.9200	 0.0064
2518.8487	 0.0064
2520.7773	 0.0064
2522.7060	 0.0064
2524.6347	 0.0064
2526.5634	 0.0065
2528.4920	 0.0064
2530.4207	 0.0064
2532.3494	 0.0065
2534.2781	 0.0065
2536.2067	 0.0065
2538.1354	 0.0065
2540.0641	 0.0065
2541.9927	 0.0065
2543.9214	 0.0065
2545.8501	 0.0065
2547.7788	 0.0065
2549.7074	 0.0065
2551.6361	 0.0065
2553.5648	 0.0065
2555.4935	 0.0065
2557.4221	 0.0065
2559.3508	 0.0065
2561.2795	 0.0065
2563.2082	 0.0065
2565.1368	 0.0066
2567.0655	 0.0066
2568.9942	 0.0066
2570.9229	 0.0066
2572.8515	 0.0066
2574.7802	 0.0066
2576.7089	 0.0066
2578.6376	 0.0066
2580.5662	 0.0066
2582.4949	 0.0066
2584.4236	 0.0066
2586.3523	 0.0066
2588.2809	 0.0066
2590.2096	 0.0066
2592.1383	 0.0066
2594.0670	 0.0066
2595.9956	 0.0066
2597.9243	 0.0066
2599.8530	 0.0066
2601.7817	 0.0066
2603.7103	 0.0067
2605.6390	 0.0067
2607.5677	 0.0067
2609.4964	 0.0067
2611.4250	 0.0067
2613.3537	 0.0067
2615.2824	 0.0067
2617.2110	 0.0067
2619.1397	 0.0067
2621.0684	 0.0067
2622.9971	 0.0068
2624.9257	 0.0068
2626.8544	 0.0068
2628.7831	 0.0068
2630.7118	 0.0068
2632.6404	 0.0068
2634.5691	 0.0068
2636.4978	 0.0069
2638.4265	 0.0069
2640.3551	 0.0069
2642.2838	 0.0069
2644.2125	 0.0069
2646.1412	 0.0069
2648.0698	 0.0069
2649.9985	 0.0069
2651.9272	 0.0069
2653.8559	 0.0070
2655.7845	 0.0070
2657.7132	 0.0070
2659.6419	 0.0070
2661.5706	 0.0070
2663.4992	 0.0070
2665.4279	 0.0070
2667.3566	 0.0070
2669.2853	 0.0071
2671.2139	 0.0070
2673.1426	 0.0070
2675.0713	 0.0070
2677.0000	 0.0071
2678.9286	 0.0071
2680.8573	 0.0071
2682.7860	 0.0072
2684.7146	 0.0072
2686.6433	 0.0072
2688.5720	 0.0072
2690.5007	 0.0072
2692.4293	 0.0072
2694.3580	 0.0072
2696.2867	 0.0072
2698.2154	 0.0072
2700.1440	 0.0072
2702.0727	 0.0073
2704.0014	 0.0073
2705.9301	 0.0073
2707.8587	 0.0073
2709.7874	 0.0073
2711.7161	 0.0073
2713.6448	 0.0073
2715.5734	 0.0074
2717.5021	 0.0074
2719.4308	 0.0074
2721.3595	 0.0074
2723.2881	 0.0074
2725.2168	 0.0074
2727.1455	 0.0075
2729.0742	 0.0074
2731.0028	 0.0075
2732.9315	 0.0075
2734.8602	 0.0075
2736.7889	 0.0075
2738.7175	 0.0075
2740.6462	 0.0075
2742.5749	 0.0075
2744.5036	 0.0075
2746.4322	 0.0075
2748.3609	 0.0075
2750.2896	 0.0075
2752.2182	 0.0075
2754.1469	 0.0076
2756.0756	 0.0076
2758.0043	 0.0076
2759.9329	 0.0076
2761.8616	 0.0076
2763.7903	 0.0077
2765.7190	 0.0077
2767.6476	 0.0077
2769.5763	 0.0077
2771.5050	 0.0077
2773.4337	 0.0077
2775.3623	 0.0078
2777.2910	 0.0078
2779.2197	 0.0078
2781.1484	 0.0078
2783.0770	 0.0079
2785.0057	 0.0079
2786.9344	 0.0079
2788.8631	 0.0079
2790.7917	 0.0079
2792.7204	 0.0080
2794.6491	 0.0080
2796.5778	 0.0081
2798.5064	 0.0081
2800.4351	 0.0081
2802.3638	 0.0082
2804.2925	 0.0082
2806.2211	 0.0083
2808.1498	 0.0083
2810.0785	 0.0083
2812.0072	 0.0084
2813.9358	 0.0084
2815.8645	 0.0085
2817.7932	 0.0086
2819.7219	 0.0086
2821.6505	 0.0087
2823.5792	 0.0088
2825.5079	 0.0089
2827.4365	 0.0090
2829.3652	 0.0091
2831.2939	 0.0093
2833.2226	 0.0094
2835.1512	 0.0095
2837.0799	 0.0097
2839.0086	 0.0098
2840.9373	 0.0100
2842.8659	 0.0101
2844.7946	 0.0102
2846.7233	 0.0102
2848.6520	 0.0103
2850.5806	 0.0104
2852.5093	 0.0105
2854.4380	 0.0106
2856.3667	 0.0107
2858.2953	 0.0109
2860.2240	 0.0110
2862.1527	 0.0112
2864.0814	 0.0113
2866.0100	 0.0115
2867.9387	 0.0117
2869.8674	 0.0118
2871.7961	 0.0119
2873.7247	 0.0120
2875.6534	 0.0121
2877.5821	 0.0122
2879.5108	 0.0122
2881.4394	 0.0123
2883.3681	 0.0123
2885.2968	 0.0124
2887.2255	 0.0124
2889.1541	 0.0124
2891.0828	 0.0124
2893.0115	 0.0124
2894.9401	 0.0123
2896.8688	 0.0123
2898.7975	 0.0123
2900.7262	 0.0123
2902.6548	 0.0123
2904.5835	 0.0123
2906.5122	 0.0123
2908.4409	 0.0123
2910.3695	 0.0123
2912.2982	 0.0122
2914.2269	 0.0122
2916.1556	 0.0122
2918.0842	 0.0122
2920.0129	 0.0121
2921.9416	 0.0121
2923.8703	 0.0121
2925.7989	 0.0121
2927.7276	 0.0121
2929.6563	 0.0121
2931.5850	 0.0121
2933.5136	 0.0121
2935.4423	 0.0121
2937.3710	 0.0121
2939.2997	 0.0121
2941.2283	 0.0119
2943.1570	 0.0118
2945.0857	 0.0117
2947.0144	 0.0115
2948.9430	 0.0112
2950.8717	 0.0110
2952.8004	 0.0109
2954.7291	 0.0107
2956.6577	 0.0106
2958.5864	 0.0104
2960.5151	 0.0103
2962.4438	 0.0102
2964.3724	 0.0101
2966.3011	 0.0100
2968.2298	 0.0099
2970.1584	 0.0098
2972.0871	 0.0097
2974.0158	 0.0097
2975.9445	 0.0096
2977.8731	 0.0095
2979.8018	 0.0094
2981.7305	 0.0093
2983.6592	 0.0093
2985.5878	 0.0092
2987.5165	 0.0092
2989.4452	 0.0091
2991.3739	 0.0091
2993.3025	 0.0090
2995.2312	 0.0090
2997.1599	 0.0089
2999.0886	 0.0089
3001.0172	 0.0089
3002.9459	 0.0089
3004.8746	 0.0089
3006.8033	 0.0088
3008.7319	 0.0088
3010.6606	 0.0088
3012.5893	 0.0088
3014.5180	 0.0087
3016.4466	 0.0087
3018.3753	 0.0087
3020.3040	 0.0087
3022.2327	 0.0087
3024.1613	 0.0087
3026.0900	 0.0088
3028.0187	 0.0088
3029.9474	 0.0088
3031.8760	 0.0088
3033.8047	 0.0088
3035.7334	 0.0088
3037.6620	 0.0089
3039.5907	 0.0089
3041.5194	 0.0089
3043.4481	 0.0089
3045.3767	 0.0090
3047.3054	 0.0090
3049.2341	 0.0091
3051.1628	 0.0091
3053.0914	 0.0091
3055.0201	 0.0092
3056.9488	 0.0092
3058.8775	 0.0093
3060.8061	 0.0093
3062.7348	 0.0094
3064.6635	 0.0095
3066.5922	 0.0095
3068.5208	 0.0096
3070.4495	 0.0096
3072.3782	 0.0097
3074.3069	 0.0097
3076.2355	 0.0098
3078.1642	 0.0098
3080.0929	 0.0099
3082.0216	 0.0099
3083.9502	 0.0100
3085.8789	 0.0101
3087.8076	 0.0101
3089.7363	 0.0102
3091.6649	 0.0102
3093.5936	 0.0103
3095.5223	 0.0104
3097.4510	 0.0104
3099.3796	 0.0105
3101.3083	 0.0106
3103.2370	 0.0107
3105.1656	 0.0107
3107.0943	 0.0108
3109.0230	 0.0109
3110.9517	 0.0110
3112.8803	 0.0111
3114.8090	 0.0111
3116.7377	 0.0112
3118.6664	 0.0112
3120.5950	 0.0113
3122.5237	 0.0114
3124.4524	 0.0114
3126.3811	 0.0115
3128.3097	 0.0116
3130.2384	 0.0117
3132.1671	 0.0118
3134.0958	 0.0119
3136.0244	 0.0120
3137.9531	 0.0121
3139.8818	 0.0121
3141.8105	 0.0122
3143.7391	 0.0123
3145.6678	 0.0124
3147.5965	 0.0125
3149.5252	 0.0126
3151.4538	 0.0127
3153.3825	 0.0128
3155.3112	 0.0129
3157.2399	 0.0130
3159.1685	 0.0131
3161.0972	 0.0132
3163.0259	 0.0132
3164.9546	 0.0134
3166.8832	 0.0135
3168.8119	 0.0136
3170.7406	 0.0137
3172.6693	 0.0138
3174.5979	 0.0140
3176.5266	 0.0141
3178.4553	 0.0142
3180.3839	 0.0143
3182.3126	 0.0144
3184.2413	 0.0145
3186.1700	 0.0146
3188.0986	 0.0147
3190.0273	 0.0149
3191.9560	 0.0150
3193.8847	 0.0151
3195.8133	 0.0152
3197.7420	 0.0153
3199.6707	 0.0154
3201.5994	 0.0155
3203.5280	 0.0157
3205.4567	 0.0158
3207.3854	 0.0159
3209.3141	 0.0160
3211.2427	 0.0161
3213.1714	 0.0162
3215.1001	 0.0163
3217.0288	 0.0165
3218.9574	 0.0166
3220.8861	 0.0167
3222.8148	 0.0168
3224.7435	 0.0169
3226.6721	 0.0171
3228.6008	 0.0171
3230.5295	 0.0173
3232.4582	 0.0174
3234.3868	 0.0175
3236.3155	 0.0176
3238.2442	 0.0177
3240.1729	 0.0178
3242.1015	 0.0179
3244.0302	 0.0180
3245.9589	 0.0181
3247.8875	 0.0182
3249.8162	 0.0183
3251.7449	 0.0185
3253.6736	 0.0186
3255.6022	 0.0187
3257.5309	 0.0188
3259.4596	 0.0189
3261.3883	 0.0190
3263.3169	 0.0191
3265.2456	 0.0192
3267.1743	 0.0193
3269.1030	 0.0195
3271.0316	 0.0196
3272.9603	 0.0197
3274.8890	 0.0198
3276.8177	 0.0199
3278.7463	 0.0200
3280.6750	 0.0201
3282.6037	 0.0202
3284.5324	 0.0202
3286.4610	 0.0203
3288.3897	 0.0204
3290.3184	 0.0205
3292.2471	 0.0205
3294.1757	 0.0206
3296.1044	 0.0207
3298.0331	 0.0208
3299.9618	 0.0209
3301.8904	 0.0210
3303.8191	 0.0211
3305.7478	 0.0211
3307.6765	 0.0212
3309.6051	 0.0213
3311.5338	 0.0214
3313.4625	 0.0214
3315.3911	 0.0216
3317.3198	 0.0217
3319.2485	 0.0217
3321.1772	 0.0218
3323.1058	 0.0218
3325.0345	 0.0219
3326.9632	 0.0221
3328.8919	 0.0221
3330.8205	 0.0222
3332.7492	 0.0223
3334.6779	 0.0223
3336.6066	 0.0224
3338.5352	 0.0225
3340.4639	 0.0225
3342.3926	 0.0226
3344.3213	 0.0226
3346.2499	 0.0227
3348.1786	 0.0227
3350.1073	 0.0227
3352.0360	 0.0228
3353.9646	 0.0228
3355.8933	 0.0228
3357.8220	 0.0229
3359.7507	 0.0229
3361.6793	 0.0229
3363.6080	 0.0229
3365.5367	 0.0230
3367.4654	 0.0230
3369.3940	 0.0230
3371.3227	 0.0230
3373.2514	 0.0230
3375.1801	 0.0230
3377.1087	 0.0230
3379.0374	 0.0230
3380.9661	 0.0229
3382.8948	 0.0230
3384.8234	 0.0230
3386.7521	 0.0230
3388.6808	 0.0230
3390.6094	 0.0229
3392.5381	 0.0229
3394.4668	 0.0229
3396.3955	 0.0229
3398.3241	 0.0229
3400.2528	 0.0228
3402.1815	 0.0228
3404.1102	 0.0227
3406.0388	 0.0227
3407.9675	 0.0226
3409.8962	 0.0226
3411.8249	 0.0225
3413.7535	 0.0225
3415.6822	 0.0224
3417.6109	 0.0224
3419.5396	 0.0223
3421.4682	 0.0222
3423.3969	 0.0222
3425.3256	 0.0221
3427.2543	 0.0220
3429.1829	 0.0219
3431.1116	 0.0218
3433.0403	 0.0217
3434.9690	 0.0216
3436.8976	 0.0215
3438.8263	 0.0214
3440.7550	 0.0213
3442.6837	 0.0211
3444.6123	 0.0210
3446.5410	 0.0209
3448.4697	 0.0208
3450.3984	 0.0207
3452.3270	 0.0206
3454.2557	 0.0205
3456.1844	 0.0204
3458.1130	 0.0202
3460.0417	 0.0201
3461.9704	 0.0199
3463.8991	 0.0198
3465.8277	 0.0197
3467.7564	 0.0195
3469.6851	 0.0193
3471.6138	 0.0192
3473.5424	 0.0191
3475.4711	 0.0189
3477.3998	 0.0188
3479.3285	 0.0186
3481.2571	 0.0185
3483.1858	 0.0183
3485.1145	 0.0181
3487.0432	 0.0180
3488.9718	 0.0178
3490.9005	 0.0176
3492.8292	 0.0174
3494.7579	 0.0173
3496.6865	 0.0172
3498.6152	 0.0170
3500.5439	 0.0168
3502.4726	 0.0167
3504.4012	 0.0165
3506.3299	 0.0163
3508.2586	 0.0161
3510.1873	 0.0159
3512.1159	 0.0158
3514.0446	 0.0156
3515.9733	 0.0154
3517.9020	 0.0152
3519.8306	 0.0150
3521.7593	 0.0149
3523.6880	 0.0147
3525.6167	 0.0146
3527.5453	 0.0144
3529.4740	 0.0142
3531.4027	 0.0140
3533.3313	 0.0139
3535.2600	 0.0136
3537.1887	 0.0134
3539.1174	 0.0132
3541.0460	 0.0131
3542.9747	 0.0129
3544.9034	 0.0127
3546.8321	 0.0125
3548.7607	 0.0123
3550.6894	 0.0122
3552.6181	 0.0120
3554.5468	 0.0118
3556.4754	 0.0116
3558.4041	 0.0115
3560.3328	 0.0113
3562.2615	 0.0112
3564.1901	 0.0111
3566.1188	 0.0109
3568.0475	 0.0106
3569.9762	 0.0104
3571.9048	 0.0103
3573.8335	 0.0101
3575.7622	 0.0099
3577.6909	 0.0098
3579.6195	 0.0096
3581.5482	 0.0096
3583.4769	 0.0094
3585.4056	 0.0093
3587.3342	 0.0092
3589.2629	 0.0089
3591.1916	 0.0088
3593.1203	 0.0087
3595.0489	 0.0086
3596.9776	 0.0084
3598.9063	 0.0083
3600.8349	 0.0081
3602.7636	 0.0080
3604.6923	 0.0079
3606.6210	 0.0078
3608.5496	 0.0076
3610.4783	 0.0075
3612.4070	 0.0074
3614.3357	 0.0073
3616.2643	 0.0072
3618.1930	 0.0071
3620.1217	 0.0069
3622.0504	 0.0068
3623.9790	 0.0067
3625.9077	 0.0068
3627.8364	 0.0067
3629.7651	 0.0064
3631.6937	 0.0063
3633.6224	 0.0062
3635.5511	 0.0061
3637.4798	 0.0060
3639.4084	 0.0058
3641.3371	 0.0057
3643.2658	 0.0056
3645.1945	 0.0057
3647.1231	 0.0058
3649.0518	 0.0057
3650.9805	 0.0054
3652.9092	 0.0052
3654.8378	 0.0052
3656.7665	 0.0051
3658.6952	 0.0050
3660.6239	 0.0049
3662.5525	 0.0048
3664.4812	 0.0048
3666.4099	 0.0048
3668.3385	 0.0049
3670.2672	 0.0048
3672.1959	 0.0047
3674.1246	 0.0049
3676.0532	 0.0047
3677.9819	 0.0046
3679.9106	 0.0045
3681.8393	 0.0045
3683.7679	 0.0045
3685.6966	 0.0046
3687.6253	 0.0046
3689.5540	 0.0046
3691.4826	 0.0045
3693.4113	 0.0045
3695.3400	 0.0045
3697.2687	 0.0045
3699.1973	 0.0045
3701.1260	 0.0046
3703.0547	 0.0044
3704.9834	 0.0044
3706.9120	 0.0045
3708.8407	 0.0046
3710.7694	 0.0046
3712.6981	 0.0044
3714.6267	 0.0043
3716.5554	 0.0044
3718.4841	 0.0045
3720.4128	 0.0045
3722.3414	 0.0046
3724.2701	 0.0046
3726.1988	 0.0045
3728.1275	 0.0045
3730.0561	 0.0046
3731.9848	 0.0046
3733.9135	 0.0047
3735.8422	 0.0047
3737.7708	 0.0045
3739.6995	 0.0045
3741.6282	 0.0045
3743.5568	 0.0045
3745.4855	 0.0044
3747.4142	 0.0044
3749.3429	 0.0046
3751.2715	 0.0045
3753.2002	 0.0044
3755.1289	 0.0043
3757.0576	 0.0044
3758.9862	 0.0044
3760.9149	 0.0043
3762.8436	 0.0043
3764.7723	 0.0043
3766.7009	 0.0042
3768.6296	 0.0043
3770.5583	 0.0043
3772.4870	 0.0043
3774.4156	 0.0043
3776.3443	 0.0043
3778.2730	 0.0044
3780.2017	 0.0043
3782.1303	 0.0043
3784.0590	 0.0043
3785.9877	 0.0043
3787.9164	 0.0043
3789.8450	 0.0043
3791.7737	 0.0043
3793.7024	 0.0043
3795.6311	 0.0043
3797.5597	 0.0043
3799.4884	 0.0044
3801.4171	 0.0044
3803.3458	 0.0044
3805.2744	 0.0044
3807.2031	 0.0044
3809.1318	 0.0043
3811.0604	 0.0043
3812.9891	 0.0044
3814.9178	 0.0045
3816.8465	 0.0044
3818.7751	 0.0045
3820.7038	 0.0045
3822.6325	 0.0043
3824.5612	 0.0044
3826.4898	 0.0044
3828.4185	 0.0044
3830.3472	 0.0044
3832.2759	 0.0044
3834.2045	 0.0044
3836.1332	 0.0045
3838.0619	 0.0045
3839.9906	 0.0045
3841.9192	 0.0045
3843.8479	 0.0044
3845.7766	 0.0043
3847.7053	 0.0043
3849.6339	 0.0045
3851.5626	 0.0046
3853.4913	 0.0045
3855.4200	 0.0044
3857.3486	 0.0044
3859.2773	 0.0044
3861.2060	 0.0044
3863.1347	 0.0044
3865.0633	 0.0044
3866.9920	 0.0044
3868.9207	 0.0044
3870.8494	 0.0044
3872.7780	 0.0044
3874.7067	 0.0044
3876.6354	 0.0044
3878.5641	 0.0045
3880.4927	 0.0045
3882.4214	 0.0044
3884.3501	 0.0045
3886.2787	 0.0045
3888.2074	 0.0044
3890.1361	 0.0044
3892.0648	 0.0044
3893.9934	 0.0044
3895.9221	 0.0044
3897.8508	 0.0045
3899.7795	 0.0045
3901.7081	 0.0045
3903.6368	 0.0045
3905.5655	 0.0044
3907.4942	 0.0044
3909.4228	 0.0043
3911.3515	 0.0043
3913.2802	 0.0044
3915.2089	 0.0044
3917.1375	 0.0044
3919.0662	 0.0044
3920.9949	 0.0044
3922.9236	 0.0045
3924.8522	 0.0045
3926.7809	 0.0044
3928.7096	 0.0044
3930.6383	 0.0044
3932.5669	 0.0044
3934.4956	 0.0044
3936.4243	 0.0044
3938.3530	 0.0044
3940.2816	 0.0045
3942.2103	 0.0045
3944.1390	 0.0045
3946.0677	 0.0045
3947.9963	 0.0045
3949.9250	 0.0045
3951.8537	 0.0044
3953.7823	 0.0044
3955.7110	 0.0044
3957.6397	 0.0044
3959.5684	 0.0044
3961.4970	 0.0044
3963.4257	 0.0044
3965.3544	 0.0044
3967.2831	 0.0044
3969.2117	 0.0044
3971.1404	 0.0044
3973.0691	 0.0045
3974.9978	 0.0044
3976.9264	 0.0044
3978.8551	 0.0044
3980.7838	 0.0044
3982.7125	 0.0044
3984.6411	 0.0044
3986.5698	 0.0044
3988.4985	 0.0044
3990.4272	 0.0044
3992.3558	 0.0044
3994.2845	 0.0044
3996.2132	 0.0044
3998.1419	 0.0044
4000.0705	 0.0044
Filename=J131 Grinded Duplo
ObjectID=A23C0223-0674-4C14-AB5F-3907F0DDB9E7
Operator=VU
Department=FALW
