DATATYPE	 IR Spectrum
XYUNITS	 Wavenumber;Absorbance
DECIMALSYMBOL	 .
599.8177	 0.1050
601.7464	 0.1044
603.6751	 0.1036
605.6037	 0.1028
607.5324	 0.1012
609.4611	 0.0995
611.3898	 0.0986
613.3184	 0.0970
615.2471	 0.0955
617.1758	 0.0951
619.1045	 0.0943
621.0331	 0.0931
622.9618	 0.0921
624.8905	 0.0914
626.8192	 0.0907
628.7478	 0.0898
630.6765	 0.0890
632.6052	 0.0884
634.5339	 0.0879
636.4625	 0.0875
638.3912	 0.0871
640.3199	 0.0862
642.2485	 0.0854
644.1772	 0.0851
646.1059	 0.0849
648.0346	 0.0845
649.9632	 0.0840
651.8919	 0.0835
653.8206	 0.0831
655.7493	 0.0829
657.6779	 0.0826
659.6066	 0.0823
661.5353	 0.0820
663.4640	 0.0815
665.3926	 0.0812
667.3213	 0.0815
669.2500	 0.0802
671.1787	 0.0783
673.1073	 0.0767
675.0360	 0.0752
676.9647	 0.0737
678.8934	 0.0722
680.8220	 0.0710
682.7507	 0.0699
684.6794	 0.0691
686.6081	 0.0685
688.5367	 0.0678
690.4654	 0.0672
692.3941	 0.0666
694.3228	 0.0662
696.2514	 0.0658
698.1801	 0.0654
700.1088	 0.0650
702.0375	 0.0645
703.9661	 0.0640
705.8948	 0.0635
707.8235	 0.0631
709.7521	 0.0626
711.6808	 0.0621
713.6095	 0.0615
715.5382	 0.0610
717.4668	 0.0605
719.3955	 0.0600
721.3242	 0.0594
723.2529	 0.0586
725.1815	 0.0579
727.1102	 0.0572
729.0389	 0.0566
730.9676	 0.0560
732.8962	 0.0553
734.8249	 0.0547
736.7536	 0.0541
738.6823	 0.0537
740.6109	 0.0532
742.5396	 0.0528
744.4683	 0.0523
746.3970	 0.0519
748.3256	 0.0514
750.2543	 0.0510
752.1830	 0.0505
754.1117	 0.0501
756.0403	 0.0496
757.9690	 0.0492
759.8977	 0.0488
761.8264	 0.0483
763.7550	 0.0478
765.6837	 0.0474
767.6124	 0.0469
769.5411	 0.0464
771.4697	 0.0461
773.3984	 0.0458
775.3271	 0.0455
777.2557	 0.0454
779.1844	 0.0452
781.1131	 0.0450
783.0418	 0.0447
784.9704	 0.0441
786.8991	 0.0435
788.8278	 0.0430
790.7565	 0.0426
792.6851	 0.0423
794.6138	 0.0421
796.5425	 0.0419
798.4712	 0.0418
800.3998	 0.0417
802.3285	 0.0415
804.2572	 0.0414
806.1859	 0.0412
808.1145	 0.0412
810.0432	 0.0413
811.9719	 0.0413
813.9006	 0.0413
815.8292	 0.0413
817.7579	 0.0414
819.6866	 0.0415
821.6153	 0.0415
823.5439	 0.0415
825.4726	 0.0416
827.4013	 0.0416
829.3300	 0.0415
831.2586	 0.0413
833.1873	 0.0411
835.1160	 0.0408
837.0447	 0.0405
838.9733	 0.0402
840.9020	 0.0399
842.8307	 0.0395
844.7594	 0.0391
846.6880	 0.0388
848.6167	 0.0385
850.5454	 0.0382
852.4740	 0.0380
854.4027	 0.0379
856.3314	 0.0377
858.2601	 0.0376
860.1887	 0.0376
862.1174	 0.0377
864.0461	 0.0380
865.9748	 0.0384
867.9034	 0.0387
869.8321	 0.0391
871.7608	 0.0394
873.6895	 0.0396
875.6181	 0.0398
877.5468	 0.0400
879.4755	 0.0401
881.4042	 0.0404
883.3328	 0.0408
885.2615	 0.0413
887.1902	 0.0421
889.1189	 0.0429
891.0475	 0.0438
892.9762	 0.0446
894.9049	 0.0452
896.8336	 0.0455
898.7622	 0.0454
900.6909	 0.0448
902.6196	 0.0439
904.5483	 0.0430
906.4769	 0.0421
908.4056	 0.0414
910.3343	 0.0409
912.2630	 0.0406
914.1916	 0.0404
916.1203	 0.0404
918.0490	 0.0406
919.9776	 0.0407
921.9063	 0.0409
923.8350	 0.0410
925.7637	 0.0412
927.6923	 0.0414
929.6210	 0.0414
931.5497	 0.0415
933.4784	 0.0416
935.4070	 0.0419
937.3357	 0.0422
939.2644	 0.0426
941.1931	 0.0432
943.1217	 0.0440
945.0504	 0.0451
946.9791	 0.0463
948.9078	 0.0478
950.8364	 0.0493
952.7651	 0.0511
954.6938	 0.0530
956.6225	 0.0550
958.5511	 0.0570
960.4798	 0.0591
962.4085	 0.0613
964.3372	 0.0634
966.2658	 0.0654
968.1945	 0.0675
970.1232	 0.0697
972.0519	 0.0720
973.9805	 0.0745
975.9092	 0.0773
977.8379	 0.0805
979.7666	 0.0839
981.6952	 0.0875
983.6239	 0.0912
985.5526	 0.0948
987.4812	 0.0979
989.4099	 0.1007
991.3386	 0.1030
993.2673	 0.1048
995.1959	 0.1061
997.1246	 0.1073
999.0533	 0.1084
1000.9820	 0.1097
1002.9106	 0.1114
1004.8393	 0.1135
1006.7680	 0.1162
1008.6967	 0.1194
1010.6253	 0.1231
1012.5540	 0.1272
1014.4827	 0.1314
1016.4114	 0.1353
1018.3400	 0.1388
1020.2687	 0.1416
1022.1974	 0.1440
1024.1261	 0.1459
1026.0547	 0.1474
1027.9834	 0.1487
1029.9121	 0.1498
1031.8408	 0.1506
1033.7694	 0.1510
1035.6981	 0.1507
1037.6268	 0.1500
1039.5555	 0.1491
1041.4841	 0.1481
1043.4128	 0.1471
1045.3415	 0.1459
1047.2702	 0.1444
1049.1988	 0.1424
1051.1275	 0.1398
1053.0562	 0.1370
1054.9849	 0.1338
1056.9135	 0.1306
1058.8422	 0.1274
1060.7709	 0.1241
1062.6995	 0.1208
1064.6282	 0.1177
1066.5569	 0.1150
1068.4856	 0.1126
1070.4142	 0.1106
1072.3429	 0.1086
1074.2716	 0.1066
1076.2003	 0.1045
1078.1289	 0.1023
1080.0576	 0.1001
1081.9863	 0.0981
1083.9150	 0.0963
1085.8436	 0.0946
1087.7723	 0.0930
1089.7010	 0.0915
1091.6297	 0.0901
1093.5583	 0.0887
1095.4870	 0.0876
1097.4157	 0.0865
1099.3444	 0.0856
1101.2730	 0.0849
1103.2017	 0.0843
1105.1304	 0.0838
1107.0591	 0.0834
1108.9877	 0.0829
1110.9164	 0.0825
1112.8451	 0.0820
1114.7738	 0.0813
1116.7024	 0.0804
1118.6311	 0.0795
1120.5598	 0.0785
1122.4885	 0.0772
1124.4171	 0.0754
1126.3458	 0.0731
1128.2745	 0.0702
1130.2031	 0.0668
1132.1318	 0.0633
1134.0605	 0.0598
1135.9892	 0.0568
1137.9178	 0.0543
1139.8465	 0.0527
1141.7752	 0.0519
1143.7039	 0.0517
1145.6325	 0.0519
1147.5612	 0.0523
1149.4899	 0.0529
1151.4186	 0.0535
1153.3472	 0.0539
1155.2759	 0.0539
1157.2046	 0.0535
1159.1333	 0.0526
1161.0619	 0.0512
1162.9906	 0.0493
1164.9193	 0.0470
1166.8480	 0.0445
1168.7766	 0.0419
1170.7053	 0.0396
1172.6340	 0.0375
1174.5627	 0.0358
1176.4913	 0.0345
1178.4200	 0.0334
1180.3487	 0.0327
1182.2774	 0.0322
1184.2060	 0.0318
1186.1347	 0.0316
1188.0634	 0.0315
1189.9921	 0.0317
1191.9207	 0.0320
1193.8494	 0.0326
1195.7781	 0.0333
1197.7068	 0.0342
1199.6354	 0.0353
1201.5641	 0.0366
1203.4928	 0.0379
1205.4214	 0.0394
1207.3501	 0.0410
1209.2788	 0.0427
1211.2075	 0.0445
1213.1361	 0.0463
1215.0648	 0.0482
1216.9935	 0.0499
1218.9222	 0.0516
1220.8508	 0.0531
1222.7795	 0.0544
1224.7082	 0.0556
1226.6369	 0.0566
1228.5655	 0.0575
1230.4942	 0.0581
1232.4229	 0.0586
1234.3516	 0.0589
1236.2802	 0.0590
1238.2089	 0.0589
1240.1376	 0.0586
1242.0663	 0.0580
1243.9949	 0.0573
1245.9236	 0.0564
1247.8523	 0.0555
1249.7810	 0.0544
1251.7096	 0.0532
1253.6383	 0.0520
1255.5670	 0.0508
1257.4957	 0.0496
1259.4243	 0.0484
1261.3530	 0.0471
1263.2817	 0.0458
1265.2104	 0.0446
1267.1390	 0.0433
1269.0677	 0.0421
1270.9964	 0.0407
1272.9250	 0.0393
1274.8537	 0.0379
1276.7824	 0.0367
1278.7111	 0.0355
1280.6397	 0.0344
1282.5684	 0.0335
1284.4971	 0.0327
1286.4258	 0.0319
1288.3544	 0.0314
1290.2831	 0.0309
1292.2118	 0.0306
1294.1405	 0.0305
1296.0691	 0.0305
1297.9978	 0.0306
1299.9265	 0.0309
1301.8552	 0.0313
1303.7838	 0.0318
1305.7125	 0.0323
1307.6412	 0.0330
1309.5699	 0.0337
1311.4985	 0.0345
1313.4272	 0.0355
1315.3559	 0.0364
1317.2846	 0.0371
1319.2132	 0.0376
1321.1419	 0.0377
1323.0706	 0.0377
1324.9993	 0.0377
1326.9279	 0.0377
1328.8566	 0.0375
1330.7853	 0.0372
1332.7140	 0.0367
1334.6426	 0.0360
1336.5713	 0.0354
1338.5000	 0.0347
1340.4286	 0.0340
1342.3573	 0.0334
1344.2860	 0.0330
1346.2147	 0.0327
1348.1433	 0.0326
1350.0720	 0.0326
1352.0007	 0.0328
1353.9294	 0.0331
1355.8580	 0.0336
1357.7867	 0.0342
1359.7154	 0.0350
1361.6441	 0.0359
1363.5727	 0.0367
1365.5014	 0.0373
1367.4301	 0.0378
1369.3588	 0.0383
1371.2874	 0.0385
1373.2161	 0.0385
1375.1448	 0.0382
1377.0735	 0.0376
1379.0021	 0.0366
1380.9308	 0.0354
1382.8595	 0.0341
1384.7882	 0.0328
1386.7168	 0.0317
1388.6455	 0.0306
1390.5742	 0.0298
1392.5029	 0.0293
1394.4315	 0.0289
1396.3602	 0.0287
1398.2889	 0.0285
1400.2176	 0.0284
1402.1462	 0.0285
1404.0749	 0.0288
1406.0036	 0.0292
1407.9323	 0.0297
1409.8609	 0.0304
1411.7896	 0.0312
1413.7183	 0.0321
1415.6469	 0.0331
1417.5756	 0.0340
1419.5043	 0.0346
1421.4330	 0.0348
1423.3616	 0.0348
1425.2903	 0.0343
1427.2190	 0.0336
1429.1477	 0.0326
1431.0763	 0.0315
1433.0050	 0.0305
1434.9337	 0.0299
1436.8624	 0.0291
1438.7910	 0.0286
1440.7197	 0.0285
1442.6484	 0.0287
1444.5771	 0.0291
1446.5057	 0.0297
1448.4344	 0.0304
1450.3631	 0.0310
1452.2918	 0.0316
1454.2204	 0.0321
1456.1491	 0.0324
1458.0778	 0.0323
1460.0065	 0.0322
1461.9351	 0.0321
1463.8638	 0.0315
1465.7925	 0.0303
1467.7212	 0.0288
1469.6498	 0.0273
1471.5785	 0.0254
1473.5072	 0.0229
1475.4359	 0.0212
1477.3645	 0.0198
1479.2932	 0.0189
1481.2219	 0.0182
1483.1505	 0.0178
1485.0792	 0.0177
1487.0079	 0.0179
1488.9366	 0.0183
1490.8652	 0.0190
1492.7939	 0.0197
1494.7226	 0.0205
1496.6513	 0.0216
1498.5799	 0.0227
1500.5086	 0.0237
1502.4373	 0.0243
1504.3660	 0.0246
1506.2946	 0.0245
1508.2233	 0.0236
1510.1520	 0.0228
1512.0807	 0.0218
1514.0093	 0.0208
1515.9380	 0.0199
1517.8667	 0.0188
1519.7954	 0.0180
1521.7240	 0.0169
1523.6527	 0.0161
1525.5814	 0.0156
1527.5101	 0.0151
1529.4387	 0.0147
1531.3674	 0.0146
1533.2961	 0.0143
1535.2248	 0.0141
1537.1534	 0.0140
1539.0821	 0.0140
1541.0108	 0.0138
1542.9395	 0.0138
1544.8681	 0.0139
1546.7968	 0.0139
1548.7255	 0.0140
1550.6542	 0.0141
1552.5828	 0.0141
1554.5115	 0.0142
1556.4402	 0.0143
1558.3688	 0.0144
1560.2975	 0.0146
1562.2262	 0.0148
1564.1549	 0.0151
1566.0835	 0.0154
1568.0122	 0.0157
1569.9409	 0.0163
1571.8696	 0.0169
1573.7982	 0.0174
1575.7269	 0.0182
1577.6556	 0.0193
1579.5843	 0.0203
1581.5129	 0.0215
1583.4416	 0.0228
1585.3703	 0.0242
1587.2990	 0.0257
1589.2276	 0.0270
1591.1563	 0.0281
1593.0850	 0.0287
1595.0137	 0.0288
1596.9423	 0.0285
1598.8710	 0.0280
1600.7997	 0.0276
1602.7284	 0.0272
1604.6570	 0.0270
1606.5857	 0.0269
1608.5144	 0.0267
1610.4431	 0.0267
1612.3717	 0.0267
1614.3004	 0.0269
1616.2291	 0.0270
1618.1578	 0.0272
1620.0864	 0.0273
1622.0151	 0.0274
1623.9438	 0.0274
1625.8724	 0.0274
1627.8011	 0.0274
1629.7298	 0.0273
1631.6585	 0.0273
1633.5871	 0.0273
1635.5158	 0.0271
1637.4445	 0.0269
1639.3732	 0.0269
1641.3018	 0.0268
1643.2305	 0.0268
1645.1592	 0.0267
1647.0879	 0.0264
1649.0165	 0.0262
1650.9452	 0.0261
1652.8739	 0.0257
1654.8026	 0.0250
1656.7312	 0.0248
1658.6599	 0.0245
1660.5886	 0.0240
1662.5173	 0.0234
1664.4459	 0.0227
1666.3746	 0.0221
1668.3033	 0.0215
1670.2320	 0.0206
1672.1606	 0.0200
1674.0893	 0.0195
1676.0180	 0.0187
1677.9467	 0.0182
1679.8753	 0.0178
1681.8040	 0.0174
1683.7327	 0.0169
1685.6614	 0.0162
1687.5900	 0.0160
1689.5187	 0.0158
1691.4474	 0.0156
1693.3760	 0.0155
1695.3047	 0.0154
1697.2334	 0.0155
1699.1621	 0.0156
1701.0907	 0.0159
1703.0194	 0.0162
1704.9481	 0.0166
1706.8768	 0.0172
1708.8054	 0.0179
1710.7341	 0.0187
1712.6628	 0.0196
1714.5915	 0.0206
1716.5201	 0.0216
1718.4488	 0.0227
1720.3775	 0.0237
1722.3062	 0.0246
1724.2348	 0.0255
1726.1635	 0.0263
1728.0922	 0.0270
1730.0209	 0.0276
1731.9495	 0.0279
1733.8782	 0.0279
1735.8069	 0.0276
1737.7356	 0.0273
1739.6642	 0.0266
1741.5929	 0.0257
1743.5216	 0.0248
1745.4503	 0.0236
1747.3789	 0.0224
1749.3076	 0.0211
1751.2363	 0.0196
1753.1650	 0.0181
1755.0936	 0.0171
1757.0223	 0.0158
1758.9510	 0.0146
1760.8797	 0.0136
1762.8083	 0.0124
1764.7370	 0.0115
1766.6657	 0.0108
1768.5943	 0.0101
1770.5230	 0.0095
1772.4517	 0.0090
1774.3804	 0.0085
1776.3090	 0.0082
1778.2377	 0.0080
1780.1664	 0.0078
1782.0951	 0.0076
1784.0237	 0.0074
1785.9524	 0.0073
1787.8811	 0.0072
1789.8098	 0.0072
1791.7384	 0.0071
1793.6671	 0.0069
1795.5958	 0.0069
1797.5245	 0.0068
1799.4531	 0.0068
1801.3818	 0.0067
1803.3105	 0.0066
1805.2392	 0.0066
1807.1678	 0.0065
1809.0965	 0.0065
1811.0252	 0.0064
1812.9539	 0.0064
1814.8825	 0.0064
1816.8112	 0.0064
1818.7399	 0.0063
1820.6686	 0.0063
1822.5972	 0.0063
1824.5259	 0.0063
1826.4546	 0.0063
1828.3833	 0.0063
1830.3119	 0.0062
1832.2406	 0.0062
1834.1693	 0.0062
1836.0979	 0.0062
1838.0266	 0.0062
1839.9553	 0.0062
1841.8840	 0.0062
1843.8126	 0.0062
1845.7413	 0.0062
1847.6700	 0.0062
1849.5987	 0.0062
1851.5273	 0.0061
1853.4560	 0.0061
1855.3847	 0.0061
1857.3134	 0.0061
1859.2420	 0.0062
1861.1707	 0.0062
1863.0994	 0.0062
1865.0281	 0.0062
1866.9567	 0.0062
1868.8854	 0.0062
1870.8141	 0.0062
1872.7428	 0.0062
1874.6714	 0.0061
1876.6001	 0.0061
1878.5288	 0.0061
1880.4575	 0.0062
1882.3861	 0.0062
1884.3148	 0.0062
1886.2435	 0.0062
1888.1722	 0.0062
1890.1008	 0.0062
1892.0295	 0.0062
1893.9582	 0.0062
1895.8869	 0.0062
1897.8155	 0.0062
1899.7442	 0.0062
1901.6729	 0.0062
1903.6016	 0.0062
1905.5302	 0.0062
1907.4589	 0.0063
1909.3876	 0.0063
1911.3162	 0.0063
1913.2449	 0.0063
1915.1736	 0.0063
1917.1023	 0.0063
1919.0309	 0.0063
1920.9596	 0.0063
1922.8883	 0.0064
1924.8170	 0.0063
1926.7456	 0.0063
1928.6743	 0.0063
1930.6030	 0.0063
1932.5317	 0.0063
1934.4603	 0.0064
1936.3890	 0.0064
1938.3177	 0.0064
1940.2464	 0.0064
1942.1750	 0.0065
1944.1037	 0.0065
1946.0324	 0.0065
1947.9611	 0.0065
1949.8897	 0.0065
1951.8184	 0.0065
1953.7471	 0.0064
1955.6758	 0.0065
1957.6044	 0.0065
1959.5331	 0.0065
1961.4618	 0.0065
1963.3905	 0.0065
1965.3191	 0.0065
1967.2478	 0.0065
1969.1765	 0.0065
1971.1052	 0.0065
1973.0338	 0.0065
1974.9625	 0.0065
1976.8912	 0.0065
1978.8198	 0.0065
1980.7485	 0.0065
1982.6772	 0.0065
1984.6059	 0.0065
1986.5345	 0.0065
1988.4632	 0.0066
1990.3919	 0.0066
1992.3206	 0.0066
1994.2492	 0.0066
1996.1779	 0.0065
1998.1066	 0.0066
2000.0353	 0.0066
2001.9639	 0.0066
2003.8926	 0.0066
2005.8213	 0.0066
2007.7500	 0.0066
2009.6786	 0.0066
2011.6073	 0.0066
2013.5360	 0.0067
2015.4647	 0.0067
2017.3933	 0.0067
2019.3220	 0.0067
2021.2507	 0.0067
2023.1794	 0.0067
2025.1080	 0.0067
2027.0367	 0.0068
2028.9654	 0.0068
2030.8941	 0.0068
2032.8227	 0.0068
2034.7514	 0.0068
2036.6801	 0.0068
2038.6088	 0.0068
2040.5374	 0.0068
2042.4661	 0.0069
2044.3948	 0.0068
2046.3234	 0.0069
2048.2521	 0.0069
2050.1808	 0.0069
2052.1095	 0.0069
2054.0381	 0.0069
2055.9668	 0.0069
2057.8955	 0.0069
2059.8242	 0.0069
2061.7528	 0.0069
2063.6815	 0.0069
2065.6102	 0.0069
2067.5389	 0.0069
2069.4675	 0.0069
2071.3962	 0.0069
2073.3249	 0.0069
2075.2536	 0.0069
2077.1822	 0.0069
2079.1109	 0.0069
2081.0396	 0.0069
2082.9683	 0.0069
2084.8969	 0.0069
2086.8256	 0.0069
2088.7543	 0.0070
2090.6830	 0.0070
2092.6116	 0.0070
2094.5403	 0.0069
2096.4690	 0.0069
2098.3977	 0.0070
2100.3263	 0.0070
2102.2550	 0.0070
2104.1837	 0.0070
2106.1124	 0.0070
2108.0410	 0.0070
2109.9697	 0.0070
2111.8984	 0.0070
2113.8271	 0.0070
2115.7557	 0.0070
2117.6844	 0.0070
2119.6131	 0.0070
2121.5417	 0.0070
2123.4704	 0.0070
2125.3991	 0.0070
2127.3278	 0.0070
2129.2564	 0.0070
2131.1851	 0.0070
2133.1138	 0.0070
2135.0425	 0.0070
2136.9711	 0.0070
2138.8998	 0.0070
2140.8285	 0.0069
2142.7572	 0.0069
2144.6858	 0.0069
2146.6145	 0.0070
2148.5432	 0.0069
2150.4719	 0.0069
2152.4005	 0.0069
2154.3292	 0.0069
2156.2579	 0.0069
2158.1866	 0.0069
2160.1152	 0.0069
2162.0439	 0.0069
2163.9726	 0.0069
2165.9013	 0.0069
2167.8299	 0.0069
2169.7586	 0.0068
2171.6873	 0.0068
2173.6160	 0.0068
2175.5446	 0.0068
2177.4733	 0.0068
2179.4020	 0.0068
2181.3307	 0.0068
2183.2593	 0.0067
2185.1880	 0.0068
2187.1167	 0.0068
2189.0453	 0.0067
2190.9740	 0.0067
2192.9027	 0.0067
2194.8314	 0.0067
2196.7600	 0.0067
2198.6887	 0.0067
2200.6174	 0.0067
2202.5461	 0.0066
2204.4747	 0.0066
2206.4034	 0.0066
2208.3321	 0.0066
2210.2608	 0.0066
2212.1894	 0.0066
2214.1181	 0.0066
2216.0468	 0.0066
2217.9755	 0.0066
2219.9041	 0.0065
2221.8328	 0.0065
2223.7615	 0.0066
2225.6902	 0.0066
2227.6188	 0.0066
2229.5475	 0.0065
2231.4762	 0.0066
2233.4049	 0.0066
2235.3335	 0.0066
2237.2622	 0.0066
2239.1909	 0.0066
2241.1196	 0.0065
2243.0482	 0.0065
2244.9769	 0.0066
2246.9056	 0.0066
2248.8343	 0.0066
2250.7629	 0.0066
2252.6916	 0.0066
2254.6203	 0.0066
2256.5490	 0.0066
2258.4776	 0.0066
2260.4063	 0.0066
2262.3350	 0.0066
2264.2636	 0.0066
2266.1923	 0.0066
2268.1210	 0.0066
2270.0497	 0.0066
2271.9783	 0.0066
2273.9070	 0.0066
2275.8357	 0.0066
2277.7644	 0.0066
2279.6930	 0.0066
2281.6217	 0.0066
2283.5504	 0.0065
2285.4791	 0.0066
2287.4077	 0.0067
2289.3364	 0.0067
2291.2651	 0.0068
2293.1938	 0.0069
2295.1224	 0.0070
2297.0511	 0.0071
2298.9798	 0.0072
2300.9085	 0.0074
2302.8371	 0.0075
2304.7658	 0.0077
2306.6945	 0.0079
2308.6232	 0.0082
2310.5518	 0.0084
2312.4805	 0.0085
2314.4092	 0.0086
2316.3379	 0.0088
2318.2665	 0.0091
2320.1952	 0.0095
2322.1239	 0.0098
2324.0526	 0.0099
2325.9812	 0.0100
2327.9099	 0.0102
2329.8386	 0.0104
2331.7672	 0.0105
2333.6959	 0.0105
2335.6246	 0.0106
2337.5533	 0.0106
2339.4819	 0.0107
2341.4106	 0.0108
2343.3393	 0.0109
2345.2680	 0.0106
2347.1966	 0.0098
2349.1253	 0.0096
2351.0540	 0.0102
2352.9827	 0.0110
2354.9113	 0.0117
2356.8400	 0.0122
2358.7687	 0.0124
2360.6974	 0.0125
2362.6260	 0.0124
2364.5547	 0.0121
2366.4834	 0.0117
2368.4121	 0.0111
2370.3407	 0.0105
2372.2694	 0.0099
2374.1981	 0.0094
2376.1268	 0.0089
2378.0554	 0.0083
2379.9841	 0.0078
2381.9128	 0.0074
2383.8415	 0.0070
2385.7701	 0.0067
2387.6988	 0.0066
2389.6275	 0.0066
2391.5562	 0.0065
2393.4848	 0.0065
2395.4135	 0.0065
2397.3422	 0.0066
2399.2708	 0.0066
2401.1995	 0.0066
2403.1282	 0.0066
2405.0569	 0.0066
2406.9855	 0.0066
2408.9142	 0.0066
2410.8429	 0.0066
2412.7716	 0.0067
2414.7002	 0.0067
2416.6289	 0.0067
2418.5576	 0.0067
2420.4863	 0.0067
2422.4149	 0.0067
2424.3436	 0.0067
2426.2723	 0.0067
2428.2010	 0.0067
2430.1296	 0.0067
2432.0583	 0.0067
2433.9870	 0.0067
2435.9157	 0.0067
2437.8443	 0.0067
2439.7730	 0.0068
2441.7017	 0.0068
2443.6304	 0.0068
2445.5590	 0.0068
2447.4877	 0.0068
2449.4164	 0.0068
2451.3451	 0.0068
2453.2737	 0.0068
2455.2024	 0.0068
2457.1311	 0.0068
2459.0598	 0.0069
2460.9884	 0.0069
2462.9171	 0.0069
2464.8458	 0.0068
2466.7745	 0.0069
2468.7031	 0.0069
2470.6318	 0.0069
2472.5605	 0.0069
2474.4891	 0.0069
2476.4178	 0.0069
2478.3465	 0.0069
2480.2752	 0.0070
2482.2038	 0.0070
2484.1325	 0.0070
2486.0612	 0.0070
2487.9899	 0.0070
2489.9185	 0.0070
2491.8472	 0.0070
2493.7759	 0.0070
2495.7046	 0.0070
2497.6332	 0.0070
2499.5619	 0.0070
2501.4906	 0.0070
2503.4193	 0.0070
2505.3479	 0.0071
2507.2766	 0.0071
2509.2053	 0.0071
2511.1340	 0.0071
2513.0626	 0.0071
2514.9913	 0.0071
2516.9200	 0.0071
2518.8487	 0.0071
2520.7773	 0.0071
2522.7060	 0.0071
2524.6347	 0.0071
2526.5634	 0.0072
2528.4920	 0.0072
2530.4207	 0.0072
2532.3494	 0.0072
2534.2781	 0.0072
2536.2067	 0.0072
2538.1354	 0.0072
2540.0641	 0.0072
2541.9927	 0.0072
2543.9214	 0.0072
2545.8501	 0.0072
2547.7788	 0.0072
2549.7074	 0.0073
2551.6361	 0.0073
2553.5648	 0.0073
2555.4935	 0.0073
2557.4221	 0.0073
2559.3508	 0.0073
2561.2795	 0.0073
2563.2082	 0.0073
2565.1368	 0.0073
2567.0655	 0.0074
2568.9942	 0.0074
2570.9229	 0.0074
2572.8515	 0.0074
2574.7802	 0.0074
2576.7089	 0.0074
2578.6376	 0.0074
2580.5662	 0.0074
2582.4949	 0.0074
2584.4236	 0.0075
2586.3523	 0.0075
2588.2809	 0.0075
2590.2096	 0.0075
2592.1383	 0.0075
2594.0670	 0.0075
2595.9956	 0.0075
2597.9243	 0.0075
2599.8530	 0.0076
2601.7817	 0.0075
2603.7103	 0.0075
2605.6390	 0.0076
2607.5677	 0.0076
2609.4964	 0.0076
2611.4250	 0.0076
2613.3537	 0.0077
2615.2824	 0.0077
2617.2110	 0.0077
2619.1397	 0.0077
2621.0684	 0.0077
2622.9971	 0.0077
2624.9257	 0.0078
2626.8544	 0.0078
2628.7831	 0.0078
2630.7118	 0.0078
2632.6404	 0.0078
2634.5691	 0.0079
2636.4978	 0.0079
2638.4265	 0.0079
2640.3551	 0.0079
2642.2838	 0.0080
2644.2125	 0.0080
2646.1412	 0.0080
2648.0698	 0.0080
2649.9985	 0.0080
2651.9272	 0.0080
2653.8559	 0.0080
2655.7845	 0.0080
2657.7132	 0.0081
2659.6419	 0.0081
2661.5706	 0.0081
2663.4992	 0.0081
2665.4279	 0.0081
2667.3566	 0.0082
2669.2853	 0.0082
2671.2139	 0.0082
2673.1426	 0.0082
2675.0713	 0.0082
2677.0000	 0.0082
2678.9286	 0.0083
2680.8573	 0.0083
2682.7860	 0.0083
2684.7146	 0.0083
2686.6433	 0.0084
2688.5720	 0.0084
2690.5007	 0.0084
2692.4293	 0.0084
2694.3580	 0.0084
2696.2867	 0.0084
2698.2154	 0.0085
2700.1440	 0.0085
2702.0727	 0.0085
2704.0014	 0.0085
2705.9301	 0.0086
2707.8587	 0.0086
2709.7874	 0.0086
2711.7161	 0.0087
2713.6448	 0.0087
2715.5734	 0.0087
2717.5021	 0.0088
2719.4308	 0.0088
2721.3595	 0.0088
2723.2881	 0.0088
2725.2168	 0.0088
2727.1455	 0.0089
2729.0742	 0.0089
2731.0028	 0.0089
2732.9315	 0.0089
2734.8602	 0.0089
2736.7889	 0.0089
2738.7175	 0.0089
2740.6462	 0.0089
2742.5749	 0.0090
2744.5036	 0.0090
2746.4322	 0.0090
2748.3609	 0.0090
2750.2896	 0.0091
2752.2182	 0.0091
2754.1469	 0.0091
2756.0756	 0.0091
2758.0043	 0.0091
2759.9329	 0.0092
2761.8616	 0.0092
2763.7903	 0.0092
2765.7190	 0.0093
2767.6476	 0.0093
2769.5763	 0.0093
2771.5050	 0.0093
2773.4337	 0.0094
2775.3623	 0.0094
2777.2910	 0.0094
2779.2197	 0.0095
2781.1484	 0.0095
2783.0770	 0.0095
2785.0057	 0.0096
2786.9344	 0.0096
2788.8631	 0.0096
2790.7917	 0.0097
2792.7204	 0.0097
2794.6491	 0.0097
2796.5778	 0.0098
2798.5064	 0.0099
2800.4351	 0.0100
2802.3638	 0.0100
2804.2925	 0.0101
2806.2211	 0.0102
2808.1498	 0.0102
2810.0785	 0.0103
2812.0072	 0.0104
2813.9358	 0.0105
2815.8645	 0.0106
2817.7932	 0.0107
2819.7219	 0.0108
2821.6505	 0.0109
2823.5792	 0.0110
2825.5079	 0.0112
2827.4365	 0.0114
2829.3652	 0.0116
2831.2939	 0.0119
2833.2226	 0.0121
2835.1512	 0.0124
2837.0799	 0.0126
2839.0086	 0.0129
2840.9373	 0.0132
2842.8659	 0.0135
2844.7946	 0.0139
2846.7233	 0.0142
2848.6520	 0.0146
2850.5806	 0.0149
2852.5093	 0.0151
2854.4380	 0.0152
2856.3667	 0.0152
2858.2953	 0.0153
2860.2240	 0.0154
2862.1527	 0.0155
2864.0814	 0.0157
2866.0100	 0.0158
2867.9387	 0.0160
2869.8674	 0.0161
2871.7961	 0.0163
2873.7247	 0.0165
2875.6534	 0.0166
2877.5821	 0.0167
2879.5108	 0.0168
2881.4394	 0.0169
2883.3681	 0.0170
2885.2968	 0.0171
2887.2255	 0.0171
2889.1541	 0.0172
2891.0828	 0.0172
2893.0115	 0.0173
2894.9401	 0.0173
2896.8688	 0.0174
2898.7975	 0.0175
2900.7262	 0.0175
2902.6548	 0.0176
2904.5835	 0.0177
2906.5122	 0.0178
2908.4409	 0.0179
2910.3695	 0.0180
2912.2982	 0.0182
2914.2269	 0.0183
2916.1556	 0.0185
2918.0842	 0.0187
2920.0129	 0.0188
2921.9416	 0.0189
2923.8703	 0.0188
2925.7989	 0.0188
2927.7276	 0.0188
2929.6563	 0.0187
2931.5850	 0.0187
2933.5136	 0.0186
2935.4423	 0.0185
2937.3710	 0.0184
2939.2997	 0.0182
2941.2283	 0.0179
2943.1570	 0.0177
2945.0857	 0.0174
2947.0144	 0.0171
2948.9430	 0.0168
2950.8717	 0.0164
2952.8004	 0.0162
2954.7291	 0.0159
2956.6577	 0.0156
2958.5864	 0.0154
2960.5151	 0.0152
2962.4438	 0.0151
2964.3724	 0.0149
2966.3011	 0.0148
2968.2298	 0.0146
2970.1584	 0.0145
2972.0871	 0.0143
2974.0158	 0.0142
2975.9445	 0.0140
2977.8731	 0.0139
2979.8018	 0.0138
2981.7305	 0.0137
2983.6592	 0.0134
2985.5878	 0.0131
2987.5165	 0.0130
2989.4452	 0.0129
2991.3739	 0.0128
2993.3025	 0.0127
2995.2312	 0.0126
2997.1599	 0.0125
2999.0886	 0.0124
3001.0172	 0.0123
3002.9459	 0.0123
3004.8746	 0.0122
3006.8033	 0.0121
3008.7319	 0.0121
3010.6606	 0.0121
3012.5893	 0.0120
3014.5180	 0.0119
3016.4466	 0.0119
3018.3753	 0.0119
3020.3040	 0.0120
3022.2327	 0.0120
3024.1613	 0.0120
3026.0900	 0.0120
3028.0187	 0.0120
3029.9474	 0.0121
3031.8760	 0.0121
3033.8047	 0.0122
3035.7334	 0.0122
3037.6620	 0.0123
3039.5907	 0.0123
3041.5194	 0.0124
3043.4481	 0.0125
3045.3767	 0.0125
3047.3054	 0.0126
3049.2341	 0.0127
3051.1628	 0.0128
3053.0914	 0.0129
3055.0201	 0.0130
3056.9488	 0.0131
3058.8775	 0.0132
3060.8061	 0.0133
3062.7348	 0.0133
3064.6635	 0.0134
3066.5922	 0.0135
3068.5208	 0.0137
3070.4495	 0.0138
3072.3782	 0.0139
3074.3069	 0.0140
3076.2355	 0.0141
3078.1642	 0.0142
3080.0929	 0.0143
3082.0216	 0.0144
3083.9502	 0.0145
3085.8789	 0.0146
3087.8076	 0.0146
3089.7363	 0.0147
3091.6649	 0.0148
3093.5936	 0.0150
3095.5223	 0.0151
3097.4510	 0.0152
3099.3796	 0.0153
3101.3083	 0.0154
3103.2370	 0.0155
3105.1656	 0.0157
3107.0943	 0.0158
3109.0230	 0.0159
3110.9517	 0.0160
3112.8803	 0.0162
3114.8090	 0.0163
3116.7377	 0.0164
3118.6664	 0.0166
3120.5950	 0.0167
3122.5237	 0.0169
3124.4524	 0.0170
3126.3811	 0.0171
3128.3097	 0.0173
3130.2384	 0.0174
3132.1671	 0.0175
3134.0958	 0.0177
3136.0244	 0.0178
3137.9531	 0.0180
3139.8818	 0.0182
3141.8105	 0.0183
3143.7391	 0.0185
3145.6678	 0.0187
3147.5965	 0.0189
3149.5252	 0.0190
3151.4538	 0.0192
3153.3825	 0.0194
3155.3112	 0.0195
3157.2399	 0.0197
3159.1685	 0.0199
3161.0972	 0.0201
3163.0259	 0.0202
3164.9546	 0.0204
3166.8832	 0.0206
3168.8119	 0.0208
3170.7406	 0.0210
3172.6693	 0.0212
3174.5979	 0.0214
3176.5266	 0.0215
3178.4553	 0.0217
3180.3839	 0.0219
3182.3126	 0.0221
3184.2413	 0.0223
3186.1700	 0.0225
3188.0986	 0.0227
3190.0273	 0.0229
3191.9560	 0.0231
3193.8847	 0.0233
3195.8133	 0.0235
3197.7420	 0.0237
3199.6707	 0.0239
3201.5994	 0.0240
3203.5280	 0.0242
3205.4567	 0.0244
3207.3854	 0.0246
3209.3141	 0.0248
3211.2427	 0.0250
3213.1714	 0.0252
3215.1001	 0.0254
3217.0288	 0.0256
3218.9574	 0.0257
3220.8861	 0.0259
3222.8148	 0.0261
3224.7435	 0.0263
3226.6721	 0.0265
3228.6008	 0.0266
3230.5295	 0.0268
3232.4582	 0.0270
3234.3868	 0.0272
3236.3155	 0.0274
3238.2442	 0.0275
3240.1729	 0.0277
3242.1015	 0.0279
3244.0302	 0.0280
3245.9589	 0.0282
3247.8875	 0.0284
3249.8162	 0.0286
3251.7449	 0.0288
3253.6736	 0.0290
3255.6022	 0.0291
3257.5309	 0.0293
3259.4596	 0.0294
3261.3883	 0.0296
3263.3169	 0.0298
3265.2456	 0.0299
3267.1743	 0.0301
3269.1030	 0.0303
3271.0316	 0.0305
3272.9603	 0.0306
3274.8890	 0.0307
3276.8177	 0.0309
3278.7463	 0.0310
3280.6750	 0.0311
3282.6037	 0.0312
3284.5324	 0.0314
3286.4610	 0.0315
3288.3897	 0.0316
3290.3184	 0.0317
3292.2471	 0.0318
3294.1757	 0.0319
3296.1044	 0.0320
3298.0331	 0.0321
3299.9618	 0.0322
3301.8904	 0.0323
3303.8191	 0.0324
3305.7478	 0.0325
3307.6765	 0.0326
3309.6051	 0.0327
3311.5338	 0.0328
3313.4625	 0.0330
3315.3911	 0.0331
3317.3198	 0.0332
3319.2485	 0.0333
3321.1772	 0.0334
3323.1058	 0.0336
3325.0345	 0.0337
3326.9632	 0.0338
3328.8919	 0.0339
3330.8205	 0.0340
3332.7492	 0.0341
3334.6779	 0.0342
3336.6066	 0.0342
3338.5352	 0.0344
3340.4639	 0.0345
3342.3926	 0.0344
3344.3213	 0.0345
3346.2499	 0.0345
3348.1786	 0.0346
3350.1073	 0.0346
3352.0360	 0.0347
3353.9646	 0.0347
3355.8933	 0.0347
3357.8220	 0.0347
3359.7507	 0.0348
3361.6793	 0.0347
3363.6080	 0.0347
3365.5367	 0.0347
3367.4654	 0.0347
3369.3940	 0.0347
3371.3227	 0.0347
3373.2514	 0.0347
3375.1801	 0.0346
3377.1087	 0.0346
3379.0374	 0.0346
3380.9661	 0.0346
3382.8948	 0.0345
3384.8234	 0.0345
3386.7521	 0.0344
3388.6808	 0.0344
3390.6094	 0.0344
3392.5381	 0.0344
3394.4668	 0.0343
3396.3955	 0.0342
3398.3241	 0.0342
3400.2528	 0.0342
3402.1815	 0.0341
3404.1102	 0.0340
3406.0388	 0.0339
3407.9675	 0.0338
3409.8962	 0.0337
3411.8249	 0.0336
3413.7535	 0.0335
3415.6822	 0.0334
3417.6109	 0.0332
3419.5396	 0.0331
3421.4682	 0.0330
3423.3969	 0.0328
3425.3256	 0.0327
3427.2543	 0.0325
3429.1829	 0.0324
3431.1116	 0.0322
3433.0403	 0.0321
3434.9690	 0.0319
3436.8976	 0.0317
3438.8263	 0.0316
3440.7550	 0.0314
3442.6837	 0.0312
3444.6123	 0.0310
3446.5410	 0.0309
3448.4697	 0.0306
3450.3984	 0.0304
3452.3270	 0.0302
3454.2557	 0.0300
3456.1844	 0.0298
3458.1130	 0.0296
3460.0417	 0.0294
3461.9704	 0.0291
3463.8991	 0.0289
3465.8277	 0.0287
3467.7564	 0.0285
3469.6851	 0.0282
3471.6138	 0.0280
3473.5424	 0.0278
3475.4711	 0.0276
3477.3998	 0.0273
3479.3285	 0.0271
3481.2571	 0.0269
3483.1858	 0.0266
3485.1145	 0.0263
3487.0432	 0.0261
3488.9718	 0.0258
3490.9005	 0.0256
3492.8292	 0.0254
3494.7579	 0.0251
3496.6865	 0.0249
3498.6152	 0.0246
3500.5439	 0.0244
3502.4726	 0.0241
3504.4012	 0.0238
3506.3299	 0.0236
3508.2586	 0.0233
3510.1873	 0.0230
3512.1159	 0.0227
3514.0446	 0.0225
3515.9733	 0.0222
3517.9020	 0.0219
3519.8306	 0.0217
3521.7593	 0.0215
3523.6880	 0.0212
3525.6167	 0.0209
3527.5453	 0.0206
3529.4740	 0.0203
3531.4027	 0.0201
3533.3313	 0.0198
3535.2600	 0.0196
3537.1887	 0.0193
3539.1174	 0.0190
3541.0460	 0.0187
3542.9747	 0.0185
3544.9034	 0.0183
3546.8321	 0.0180
3548.7607	 0.0177
3550.6894	 0.0174
3552.6181	 0.0171
3554.5468	 0.0168
3556.4754	 0.0165
3558.4041	 0.0163
3560.3328	 0.0160
3562.2615	 0.0158
3564.1901	 0.0156
3566.1188	 0.0155
3568.0475	 0.0150
3569.9762	 0.0146
3571.9048	 0.0144
3573.8335	 0.0142
3575.7622	 0.0139
3577.6909	 0.0136
3579.6195	 0.0134
3581.5482	 0.0132
3583.4769	 0.0130
3585.4056	 0.0128
3587.3342	 0.0126
3589.2629	 0.0122
3591.1916	 0.0120
3593.1203	 0.0119
3595.0489	 0.0116
3596.9776	 0.0114
3598.9063	 0.0111
3600.8349	 0.0109
3602.7636	 0.0106
3604.6923	 0.0105
3606.6210	 0.0103
3608.5496	 0.0101
3610.4783	 0.0098
3612.4070	 0.0096
3614.3357	 0.0093
3616.2643	 0.0092
3618.1930	 0.0091
3620.1217	 0.0088
3622.0504	 0.0086
3623.9790	 0.0085
3625.9077	 0.0084
3627.8364	 0.0083
3629.7651	 0.0079
3631.6937	 0.0076
3633.6224	 0.0075
3635.5511	 0.0073
3637.4798	 0.0070
3639.4084	 0.0068
3641.3371	 0.0067
3643.2658	 0.0065
3645.1945	 0.0065
3647.1231	 0.0064
3649.0518	 0.0062
3650.9805	 0.0058
3652.9092	 0.0057
3654.8378	 0.0056
3656.7665	 0.0054
3658.6952	 0.0053
3660.6239	 0.0051
3662.5525	 0.0050
3664.4812	 0.0049
3666.4099	 0.0049
3668.3385	 0.0049
3670.2672	 0.0047
3672.1959	 0.0046
3674.1246	 0.0046
3676.0532	 0.0044
3677.9819	 0.0043
3679.9106	 0.0043
3681.8393	 0.0042
3683.7679	 0.0042
3685.6966	 0.0042
3687.6253	 0.0042
3689.5540	 0.0041
3691.4826	 0.0042
3693.4113	 0.0042
3695.3400	 0.0042
3697.2687	 0.0042
3699.1973	 0.0041
3701.1260	 0.0041
3703.0547	 0.0041
3704.9834	 0.0041
3706.9120	 0.0041
3708.8407	 0.0041
3710.7694	 0.0041
3712.6981	 0.0039
3714.6267	 0.0038
3716.5554	 0.0038
3718.4841	 0.0039
3720.4128	 0.0040
3722.3414	 0.0041
3724.2701	 0.0042
3726.1988	 0.0042
3728.1275	 0.0042
3730.0561	 0.0041
3731.9848	 0.0041
3733.9135	 0.0041
3735.8422	 0.0041
3737.7708	 0.0040
3739.6995	 0.0039
3741.6282	 0.0040
3743.5568	 0.0039
3745.4855	 0.0038
3747.4142	 0.0038
3749.3429	 0.0038
3751.2715	 0.0037
3753.2002	 0.0037
3755.1289	 0.0037
3757.0576	 0.0037
3758.9862	 0.0037
3760.9149	 0.0037
3762.8436	 0.0037
3764.7723	 0.0037
3766.7009	 0.0037
3768.6296	 0.0037
3770.5583	 0.0037
3772.4870	 0.0037
3774.4156	 0.0037
3776.3443	 0.0037
3778.2730	 0.0037
3780.2017	 0.0037
3782.1303	 0.0037
3784.0590	 0.0037
3785.9877	 0.0037
3787.9164	 0.0037
3789.8450	 0.0036
3791.7737	 0.0036
3793.7024	 0.0037
3795.6311	 0.0037
3797.5597	 0.0037
3799.4884	 0.0037
3801.4171	 0.0036
3803.3458	 0.0036
3805.2744	 0.0038
3807.2031	 0.0038
3809.1318	 0.0037
3811.0604	 0.0037
3812.9891	 0.0038
3814.9178	 0.0037
3816.8465	 0.0037
3818.7751	 0.0037
3820.7038	 0.0038
3822.6325	 0.0037
3824.5612	 0.0037
3826.4898	 0.0038
3828.4185	 0.0037
3830.3472	 0.0037
3832.2759	 0.0037
3834.2045	 0.0037
3836.1332	 0.0037
3838.0619	 0.0037
3839.9906	 0.0037
3841.9192	 0.0037
3843.8479	 0.0037
3845.7766	 0.0037
3847.7053	 0.0037
3849.6339	 0.0038
3851.5626	 0.0039
3853.4913	 0.0038
3855.4200	 0.0036
3857.3486	 0.0037
3859.2773	 0.0038
3861.2060	 0.0038
3863.1347	 0.0038
3865.0633	 0.0038
3866.9920	 0.0038
3868.9207	 0.0038
3870.8494	 0.0037
3872.7780	 0.0037
3874.7067	 0.0037
3876.6354	 0.0037
3878.5641	 0.0038
3880.4927	 0.0038
3882.4214	 0.0038
3884.3501	 0.0039
3886.2787	 0.0038
3888.2074	 0.0037
3890.1361	 0.0037
3892.0648	 0.0038
3893.9934	 0.0038
3895.9221	 0.0038
3897.8508	 0.0038
3899.7795	 0.0039
3901.7081	 0.0039
3903.6368	 0.0039
3905.5655	 0.0038
3907.4942	 0.0038
3909.4228	 0.0037
3911.3515	 0.0038
3913.2802	 0.0038
3915.2089	 0.0038
3917.1375	 0.0039
3919.0662	 0.0039
3920.9949	 0.0038
3922.9236	 0.0038
3924.8522	 0.0038
3926.7809	 0.0038
3928.7096	 0.0038
3930.6383	 0.0039
3932.5669	 0.0039
3934.4956	 0.0038
3936.4243	 0.0038
3938.3530	 0.0038
3940.2816	 0.0038
3942.2103	 0.0038
3944.1390	 0.0038
3946.0677	 0.0039
3947.9963	 0.0039
3949.9250	 0.0039
3951.8537	 0.0038
3953.7823	 0.0038
3955.7110	 0.0038
3957.6397	 0.0038
3959.5684	 0.0038
3961.4970	 0.0038
3963.4257	 0.0038
3965.3544	 0.0038
3967.2831	 0.0038
3969.2117	 0.0038
3971.1404	 0.0039
3973.0691	 0.0039
3974.9978	 0.0039
3976.9264	 0.0039
3978.8551	 0.0038
3980.7838	 0.0038
3982.7125	 0.0038
3984.6411	 0.0038
3986.5698	 0.0038
3988.4985	 0.0038
3990.4272	 0.0038
3992.3558	 0.0038
3994.2845	 0.0038
3996.2132	 0.0038
3998.1419	 0.0038
4000.0705	 0.0038
Filename=J1070 Grinded Avg
