DATATYPE	 IR Spectrum
XYUNITS	 Wavenumber;Energy
DECIMALSYMBOL	 .
0.0000	 0.0069
1.9287	 0.0056
3.8573	 0.0016
5.7860	 -0.0004
7.7147	 0.0001
9.6434	 -0.0001
11.5720	 0.0000
13.5007	 0.0000
15.4294	 0.0000
17.3581	 0.0000
19.2867	 0.0000
21.2154	 0.0000
23.1441	 0.0000
25.0728	 0.0000
27.0014	 0.0000
28.9301	 0.0000
30.8588	 0.0000
32.7875	 0.0000
34.7161	 0.0000
36.6448	 0.0000
38.5735	 0.0000
40.5022	 0.0000
42.4308	 0.0000
44.3595	 0.0000
46.2882	 0.0000
48.2169	 0.0000
50.1455	 0.0000
52.0742	 0.0000
54.0029	 0.0000
55.9316	 0.0000
57.8602	 0.0000
59.7889	 0.0000
61.7176	 0.0000
63.6463	 0.0000
65.5749	 0.0000
67.5036	 0.0000
69.4323	 0.0000
71.3609	 0.0000
73.2896	 0.0000
75.2183	 0.0000
77.1470	 0.0000
79.0756	 0.0000
81.0043	 0.0000
82.9330	 0.0000
84.8617	 0.0000
86.7903	 0.0000
88.7190	 0.0000
90.6477	 0.0000
92.5764	 0.0000
94.5050	 0.0000
96.4337	 0.0000
98.3624	 0.0001
100.2911	 0.0001
102.2197	 0.0000
104.1484	 0.0000
106.0771	 0.0000
108.0058	 0.0000
109.9344	 0.0000
111.8631	 0.0000
113.7918	 0.0000
115.7205	 0.0000
117.6491	 0.0000
119.5778	 0.0000
121.5065	 0.0000
123.4352	 0.0000
125.3638	 0.0000
127.2925	 0.0000
129.2212	 0.0000
131.1499	 0.0000
133.0785	 0.0000
135.0072	 0.0000
136.9359	 0.0000
138.8646	 0.0000
140.7932	 0.0000
142.7219	 0.0000
144.6506	 0.0000
146.5792	 0.0000
148.5079	 0.0000
150.4366	 0.0000
152.3653	 0.0000
154.2939	 0.0000
156.2226	 0.0000
158.1513	 0.0000
160.0800	 0.0000
162.0086	 0.0000
163.9373	 0.0000
165.8660	 0.0000
167.7947	 0.0000
169.7233	 0.0000
171.6520	 0.0000
173.5807	 0.0000
175.5094	 0.0000
177.4380	 0.0000
179.3667	 0.0000
181.2954	 0.0000
183.2241	 0.0000
185.1527	 0.0000
187.0814	 0.0000
189.0101	 0.0000
190.9388	 0.0000
192.8674	 0.0000
194.7961	 0.0000
196.7248	 0.0000
198.6535	 0.0000
200.5821	 0.0000
202.5108	 0.0000
204.4395	 0.0000
206.3682	 0.0000
208.2968	 0.0000
210.2255	 0.0000
212.1542	 0.0000
214.0828	 0.0000
216.0115	 0.0000
217.9402	 0.0000
219.8689	 0.0000
221.7975	 0.0000
223.7262	 0.0000
225.6549	 0.0000
227.5836	 0.0000
229.5122	 0.0000
231.4409	 0.0000
233.3696	 0.0000
235.2983	 0.0000
237.2269	 0.0000
239.1556	 0.0000
241.0843	 0.0000
243.0130	 0.0000
244.9416	 0.0000
246.8703	 0.0000
248.7990	 0.0000
250.7277	 0.0000
252.6563	 0.0000
254.5850	 0.0000
256.5137	 0.0000
258.4424	 0.0000
260.3710	 0.0000
262.2997	 0.0000
264.2284	 0.0000
266.1571	 0.0000
268.0857	 0.0000
270.0144	 0.0000
271.9431	 0.0000
273.8718	 0.0000
275.8004	 0.0000
277.7291	 0.0000
279.6578	 0.0000
281.5865	 0.0000
283.5151	 0.0000
285.4438	 0.0000
287.3725	 0.0000
289.3011	 0.0000
291.2298	 0.0000
293.1585	 0.0000
295.0872	 0.0000
297.0158	 0.0000
298.9445	 0.0000
300.8732	 0.0000
302.8019	 0.0000
304.7305	 0.0000
306.6592	 0.0000
308.5879	 0.0000
310.5166	 0.0000
312.4452	 0.0000
314.3739	 0.0000
316.3026	 0.0000
318.2313	 0.0000
320.1599	 0.0000
322.0886	 0.0000
324.0173	 0.0000
325.9460	 0.0000
327.8746	 0.0000
329.8033	 0.0000
331.7320	 0.0000
333.6607	 0.0000
335.5893	 0.0000
337.5180	 0.0000
339.4467	 0.0000
341.3754	 0.0000
343.3040	 0.0000
345.2327	 0.0000
347.1614	 0.0000
349.0901	 0.0000
351.0187	 0.0000
352.9474	 0.0000
354.8761	 0.0000
356.8047	 0.0000
358.7334	 0.0000
360.6621	 0.0000
362.5908	 0.0000
364.5194	 0.0000
366.4481	 0.0000
368.3768	 0.0000
370.3055	 0.0000
372.2341	 0.0000
374.1628	 0.0000
376.0915	 0.0000
378.0202	 0.0000
379.9488	 0.0000
381.8775	 0.0000
383.8062	 0.0000
385.7349	 0.0000
387.6635	 0.0000
389.5922	 0.0000
391.5209	 0.0000
393.4496	 0.0000
395.3782	 0.0000
397.3069	 0.0000
399.2356	 0.0000
401.1643	 0.0000
403.0929	 0.0000
405.0216	 0.0000
406.9503	 0.0000
408.8790	 0.0000
410.8076	 0.0000
412.7363	 0.0000
414.6650	 0.0000
416.5937	 0.0000
418.5223	 0.0000
420.4510	 0.0000
422.3797	 0.0000
424.3083	 0.0000
426.2370	 0.0000
428.1657	 0.0000
430.0944	 0.0000
432.0230	 0.0000
433.9517	 0.0000
435.8804	 0.0000
437.8091	 0.0000
439.7377	 0.0000
441.6664	 0.0000
443.5951	 0.0000
445.5238	 0.0000
447.4524	 0.0000
449.3811	 0.0000
451.3098	 0.0000
453.2385	 0.0000
455.1671	 0.0000
457.0958	 0.0000
459.0245	 0.0000
460.9532	 0.0000
462.8818	 0.0000
464.8105	 0.0000
466.7392	 0.0000
468.6679	 0.0000
470.5965	 0.0000
472.5252	 0.0000
474.4539	 0.0000
476.3826	 0.0000
478.3112	 0.0000
480.2399	 0.0000
482.1686	 0.0000
484.0973	 0.0000
486.0259	 0.0000
487.9546	 0.0000
489.8833	 0.0000
491.8120	 0.0000
493.7406	 0.0000
495.6693	 0.0000
497.5980	 0.0000
499.5266	 0.0000
501.4553	 0.0000
503.3840	 0.0000
505.3127	 0.0000
507.2413	 0.0000
509.1700	 0.0000
511.0987	 0.0000
513.0274	 0.0000
514.9560	 0.0001
516.8847	 0.0001
518.8134	 0.0001
520.7421	 0.0001
522.6707	 0.0002
524.5994	 0.0002
526.5281	 0.0003
528.4568	 0.0003
530.3854	 0.0004
532.3141	 0.0005
534.2428	 0.0006
536.1715	 0.0007
538.1001	 0.0008
540.0288	 0.0009
541.9575	 0.0010
543.8862	 0.0010
545.8148	 0.0011
547.7435	 0.0012
549.6722	 0.0013
551.6009	 0.0014
553.5295	 0.0015
555.4582	 0.0015
557.3869	 0.0015
559.3156	 0.0015
561.2442	 0.0016
563.1729	 0.0016
565.1016	 0.0016
567.0302	 0.0015
568.9589	 0.0015
570.8876	 0.0016
572.8163	 0.0016
574.7449	 0.0016
576.6736	 0.0017
578.6023	 0.0019
580.5310	 0.0021
582.4596	 0.0024
584.3883	 0.0027
586.3170	 0.0030
588.2457	 0.0033
590.1743	 0.0036
592.1030	 0.0039
594.0317	 0.0042
595.9604	 0.0046
597.8890	 0.0048
599.8177	 0.0050
601.7464	 0.0051
603.6751	 0.0051
605.6037	 0.0050
607.5324	 0.0048
609.4611	 0.0046
611.3898	 0.0045
613.3184	 0.0044
615.2471	 0.0043
617.1758	 0.0044
619.1045	 0.0047
621.0331	 0.0051
622.9618	 0.0057
624.8905	 0.0063
626.8192	 0.0072
628.7478	 0.0080
630.6765	 0.0086
632.6052	 0.0091
634.5339	 0.0095
636.4625	 0.0100
638.3912	 0.0106
640.3199	 0.0115
642.2485	 0.0124
644.1772	 0.0134
646.1059	 0.0142
648.0346	 0.0149
649.9632	 0.0156
651.8919	 0.0164
653.8206	 0.0173
655.7493	 0.0183
657.6779	 0.0194
659.6066	 0.0208
661.5353	 0.0222
663.4640	 0.0240
665.3926	 0.0226
667.3213	 0.0170
669.2500	 0.0184
671.1787	 0.0256
673.1073	 0.0283
675.0360	 0.0287
676.9647	 0.0292
678.8934	 0.0298
680.8220	 0.0305
682.7507	 0.0312
684.6794	 0.0321
686.6081	 0.0329
688.5367	 0.0337
690.4654	 0.0347
692.3941	 0.0358
694.3228	 0.0367
696.2514	 0.0376
698.1801	 0.0386
700.1088	 0.0395
702.0375	 0.0403
703.9661	 0.0410
705.8948	 0.0417
707.8235	 0.0424
709.7521	 0.0431
711.6808	 0.0437
713.6095	 0.0443
715.5382	 0.0448
717.4668	 0.0451
719.3955	 0.0450
721.3242	 0.0455
723.2529	 0.0466
725.1815	 0.0473
727.1102	 0.0478
729.0389	 0.0482
730.9676	 0.0487
732.8962	 0.0491
734.8249	 0.0496
736.7536	 0.0500
738.6823	 0.0503
740.6109	 0.0506
742.5396	 0.0510
744.4683	 0.0514
746.3970	 0.0519
748.3256	 0.0523
750.2543	 0.0527
752.1830	 0.0531
754.1117	 0.0535
756.0403	 0.0539
757.9690	 0.0543
759.8977	 0.0546
761.8264	 0.0550
763.7550	 0.0553
765.6837	 0.0557
767.6124	 0.0560
769.5411	 0.0563
771.4697	 0.0566
773.3984	 0.0569
775.3271	 0.0572
777.2557	 0.0575
779.1844	 0.0578
781.1131	 0.0582
783.0418	 0.0585
784.9704	 0.0588
786.8991	 0.0592
788.8278	 0.0595
790.7565	 0.0598
792.6851	 0.0601
794.6138	 0.0604
796.5425	 0.0607
798.4712	 0.0610
800.3998	 0.0614
802.3285	 0.0617
804.2572	 0.0621
806.1859	 0.0624
808.1145	 0.0628
810.0432	 0.0631
811.9719	 0.0635
813.9006	 0.0638
815.8292	 0.0641
817.7579	 0.0645
819.6866	 0.0648
821.6153	 0.0651
823.5439	 0.0655
825.4726	 0.0659
827.4013	 0.0662
829.3300	 0.0666
831.2586	 0.0670
833.1873	 0.0674
835.1160	 0.0677
837.0447	 0.0681
838.9733	 0.0684
840.9020	 0.0687
842.8307	 0.0690
844.7594	 0.0693
846.6880	 0.0696
848.6167	 0.0699
850.5454	 0.0703
852.4740	 0.0706
854.4027	 0.0709
856.3314	 0.0712
858.2601	 0.0715
860.1887	 0.0718
862.1174	 0.0721
864.0461	 0.0724
865.9748	 0.0728
867.9034	 0.0731
869.8321	 0.0734
871.7608	 0.0736
873.6895	 0.0739
875.6181	 0.0742
877.5468	 0.0746
879.4755	 0.0749
881.4042	 0.0752
883.3328	 0.0756
885.2615	 0.0759
887.1902	 0.0761
889.1189	 0.0764
891.0475	 0.0767
892.9762	 0.0770
894.9049	 0.0772
896.8336	 0.0775
898.7622	 0.0777
900.6909	 0.0779
902.6196	 0.0781
904.5483	 0.0783
906.4769	 0.0785
908.4056	 0.0787
910.3343	 0.0789
912.2630	 0.0790
914.1916	 0.0792
916.1203	 0.0794
918.0490	 0.0795
919.9776	 0.0797
921.9063	 0.0798
923.8350	 0.0799
925.7637	 0.0801
927.6923	 0.0802
929.6210	 0.0803
931.5497	 0.0804
933.4784	 0.0804
935.4070	 0.0805
937.3357	 0.0806
939.2644	 0.0806
941.1931	 0.0807
943.1217	 0.0807
945.0504	 0.0808
946.9791	 0.0808
948.9078	 0.0808
950.8364	 0.0808
952.7651	 0.0809
954.6938	 0.0809
956.6225	 0.0810
958.5511	 0.0810
960.4798	 0.0810
962.4085	 0.0811
964.3372	 0.0811
966.2658	 0.0812
968.1945	 0.0812
970.1232	 0.0813
972.0519	 0.0813
973.9805	 0.0813
975.9092	 0.0814
977.8379	 0.0814
979.7666	 0.0814
981.6952	 0.0815
983.6239	 0.0815
985.5526	 0.0815
987.4812	 0.0815
989.4099	 0.0815
991.3386	 0.0815
993.2673	 0.0814
995.1959	 0.0814
997.1246	 0.0814
999.0533	 0.0813
1000.9820	 0.0813
1002.9106	 0.0812
1004.8393	 0.0812
1006.7680	 0.0811
1008.6967	 0.0810
1010.6253	 0.0809
1012.5540	 0.0808
1014.4827	 0.0808
1016.4114	 0.0807
1018.3400	 0.0807
1020.2687	 0.0807
1022.1974	 0.0807
1024.1261	 0.0808
1026.0547	 0.0808
1027.9834	 0.0809
1029.9121	 0.0809
1031.8408	 0.0810
1033.7694	 0.0811
1035.6981	 0.0812
1037.6268	 0.0813
1039.5555	 0.0814
1041.4841	 0.0815
1043.4128	 0.0816
1045.3415	 0.0817
1047.2702	 0.0819
1049.1988	 0.0820
1051.1275	 0.0822
1053.0562	 0.0824
1054.9849	 0.0826
1056.9135	 0.0829
1058.8422	 0.0832
1060.7709	 0.0835
1062.6995	 0.0838
1064.6282	 0.0842
1066.5569	 0.0846
1068.4856	 0.0850
1070.4142	 0.0854
1072.3429	 0.0859
1074.2716	 0.0864
1076.2003	 0.0869
1078.1289	 0.0874
1080.0576	 0.0879
1081.9863	 0.0884
1083.9150	 0.0889
1085.8436	 0.0894
1087.7723	 0.0899
1089.7010	 0.0904
1091.6297	 0.0908
1093.5583	 0.0913
1095.4870	 0.0918
1097.4157	 0.0923
1099.3444	 0.0927
1101.2730	 0.0932
1103.2017	 0.0936
1105.1304	 0.0941
1107.0591	 0.0946
1108.9877	 0.0950
1110.9164	 0.0955
1112.8451	 0.0960
1114.7738	 0.0965
1116.7024	 0.0971
1118.6311	 0.0976
1120.5598	 0.0981
1122.4885	 0.0987
1124.4171	 0.0993
1126.3458	 0.1000
1128.2745	 0.1006
1130.2031	 0.1012
1132.1318	 0.1018
1134.0605	 0.1024
1135.9892	 0.1030
1137.9178	 0.1036
1139.8465	 0.1042
1141.7752	 0.1048
1143.7039	 0.1053
1145.6325	 0.1059
1147.5612	 0.1065
1149.4899	 0.1070
1151.4186	 0.1076
1153.3472	 0.1081
1155.2759	 0.1087
1157.2046	 0.1093
1159.1333	 0.1099
1161.0619	 0.1106
1162.9906	 0.1113
1164.9193	 0.1119
1166.8480	 0.1126
1168.7766	 0.1133
1170.7053	 0.1139
1172.6340	 0.1144
1174.5627	 0.1150
1176.4913	 0.1158
1178.4200	 0.1166
1180.3487	 0.1172
1182.2774	 0.1178
1184.2060	 0.1184
1186.1347	 0.1189
1188.0634	 0.1194
1189.9921	 0.1201
1191.9207	 0.1206
1193.8494	 0.1211
1195.7781	 0.1216
1197.7068	 0.1220
1199.6354	 0.1226
1201.5641	 0.1231
1203.4928	 0.1236
1205.4214	 0.1240
1207.3501	 0.1245
1209.2788	 0.1249
1211.2075	 0.1252
1213.1361	 0.1257
1215.0648	 0.1263
1216.9935	 0.1267
1218.9222	 0.1271
1220.8508	 0.1276
1222.7795	 0.1280
1224.7082	 0.1283
1226.6369	 0.1288
1228.5655	 0.1294
1230.4942	 0.1298
1232.4229	 0.1302
1234.3516	 0.1306
1236.2802	 0.1310
1238.2089	 0.1313
1240.1376	 0.1317
1242.0663	 0.1319
1243.9949	 0.1322
1245.9236	 0.1326
1247.8523	 0.1331
1249.7810	 0.1334
1251.7096	 0.1336
1253.6383	 0.1338
1255.5670	 0.1341
1257.4957	 0.1340
1259.4243	 0.1336
1261.3530	 0.1340
1263.2817	 0.1348
1265.2104	 0.1353
1267.1390	 0.1357
1269.0677	 0.1360
1270.9964	 0.1363
1272.9250	 0.1374
1274.8537	 0.1386
1276.7824	 0.1393
1278.7111	 0.1396
1280.6397	 0.1400
1282.5684	 0.1405
1284.4971	 0.1408
1286.4258	 0.1405
1288.3544	 0.1405
1290.2831	 0.1413
1292.2118	 0.1421
1294.1405	 0.1424
1296.0691	 0.1425
1297.9978	 0.1429
1299.9265	 0.1434
1301.8552	 0.1437
1303.7838	 0.1439
1305.7125	 0.1439
1307.6412	 0.1439
1309.5699	 0.1441
1311.4985	 0.1432
1313.4272	 0.1422
1315.3559	 0.1426
1317.2846	 0.1416
1319.2132	 0.1414
1321.1419	 0.1440
1323.0706	 0.1462
1324.9993	 0.1469
1326.9279	 0.1473
1328.8566	 0.1475
1330.7853	 0.1479
1332.7140	 0.1483
1334.6426	 0.1470
1336.5713	 0.1421
1338.5000	 0.1360
1340.4286	 0.1375
1342.3573	 0.1458
1344.2860	 0.1498
1346.2147	 0.1499
1348.1433	 0.1494
1350.0720	 0.1495
1352.0007	 0.1500
1353.9294	 0.1492
1355.8580	 0.1492
1357.7867	 0.1498
1359.7154	 0.1450
1361.6441	 0.1357
1363.5727	 0.1370
1365.5014	 0.1472
1367.4301	 0.1489
1369.3588	 0.1483
1371.2874	 0.1473
1373.2161	 0.1389
1375.1448	 0.1387
1377.0735	 0.1468
1379.0021	 0.1503
1380.9308	 0.1518
1382.8595	 0.1534
1384.7882	 0.1480
1386.7168	 0.1375
1388.6455	 0.1404
1390.5742	 0.1504
1392.5029	 0.1431
1394.4315	 0.1295
1396.3602	 0.1290
1398.2889	 0.1308
1400.2176	 0.1384
1402.1462	 0.1480
1404.0749	 0.1441
1406.0036	 0.1449
1407.9323	 0.1522
1409.8609	 0.1526
1411.7896	 0.1522
1413.7183	 0.1528
1415.6469	 0.1455
1417.5756	 0.1242
1419.5043	 0.1179
1421.4330	 0.1365
1423.3616	 0.1444
1425.2903	 0.1480
1427.2190	 0.1516
1429.1477	 0.1446
1431.0763	 0.1453
1433.0050	 0.1499
1434.9337	 0.1330
1436.8624	 0.1206
1438.7910	 0.1411
1440.7197	 0.1575
1442.6484	 0.1583
1444.5771	 0.1565
1446.5057	 0.1468
1448.4344	 0.1434
1450.3631	 0.1503
1452.2918	 0.1515
1454.2204	 0.1331
1456.1491	 0.0994
1458.0778	 0.0983
1460.0065	 0.1341
1461.9351	 0.1506
1463.8638	 0.1379
1465.7925	 0.1375
1467.7212	 0.1542
1469.6498	 0.1482
1471.5785	 0.1199
1473.5072	 0.1137
1475.4359	 0.1300
1477.3645	 0.1476
1479.2932	 0.1592
1481.2219	 0.1603
1483.1505	 0.1626
1485.0792	 0.1576
1487.0079	 0.1399
1488.9366	 0.1246
1490.8652	 0.1320
1492.7939	 0.1531
1494.7226	 0.1457
1496.6513	 0.1274
1498.5799	 0.1331
1500.5086	 0.1504
1502.4373	 0.1561
1504.3660	 0.1240
1506.2946	 0.0835
1508.2233	 0.0945
1510.1520	 0.1273
1512.0807	 0.1418
1514.0093	 0.1409
1515.9380	 0.1260
1517.8667	 0.1195
1519.7954	 0.1095
1521.7240	 0.1007
1523.6527	 0.1157
1525.5814	 0.1249
1527.5101	 0.1315
1529.4387	 0.1452
1531.3674	 0.1369
1533.2961	 0.1191
1535.2248	 0.1268
1537.1534	 0.1179
1539.0821	 0.0808
1541.0108	 0.0766
1542.9395	 0.0989
1544.8681	 0.1213
1546.7968	 0.1432
1548.7255	 0.1467
1550.6542	 0.1442
1552.5828	 0.1406
1554.5115	 0.1289
1556.4402	 0.1061
1558.3688	 0.0718
1560.2975	 0.0888
1562.2262	 0.1392
1564.1549	 0.1544
1566.0835	 0.1543
1568.0122	 0.1426
1569.9409	 0.1344
1571.8696	 0.1546
1573.7982	 0.1509
1575.7269	 0.1245
1577.6556	 0.1372
1579.5843	 0.1648
1581.5129	 0.1707
1583.4416	 0.1707
1585.3703	 0.1714
1587.2990	 0.1710
1589.2276	 0.1699
1591.1563	 0.1691
1593.0850	 0.1676
1595.0137	 0.1664
1596.9423	 0.1686
1598.8710	 0.1701
1600.7997	 0.1681
1602.7284	 0.1664
1604.6570	 0.1668
1606.5857	 0.1646
1608.5144	 0.1614
1610.4431	 0.1629
1612.3717	 0.1661
1614.3004	 0.1506
1616.2291	 0.1254
1618.1578	 0.1365
1620.0864	 0.1567
1622.0151	 0.1442
1623.9438	 0.1382
1625.8724	 0.1480
1627.8011	 0.1502
1629.7298	 0.1584
1631.6585	 0.1636
1633.5871	 0.1364
1635.5158	 0.1090
1637.4445	 0.1277
1639.3732	 0.1573
1641.3018	 0.1664
1643.2305	 0.1593
1645.1592	 0.1293
1647.0879	 0.1144
1649.0165	 0.1359
1650.9452	 0.1212
1652.8739	 0.0815
1654.8026	 0.1081
1656.7312	 0.1590
1658.6599	 0.1740
1660.5886	 0.1635
1662.5173	 0.1507
1664.4459	 0.1626
1666.3746	 0.1675
1668.3033	 0.1415
1670.2320	 0.1338
1672.1606	 0.1497
1674.0893	 0.1436
1676.0180	 0.1446
1677.9467	 0.1645
1679.8753	 0.1651
1681.8040	 0.1388
1683.7327	 0.1056
1685.6614	 0.1219
1687.5900	 0.1586
1689.5187	 0.1671
1691.4474	 0.1759
1693.3760	 0.1626
1695.3047	 0.1286
1697.2334	 0.1226
1699.1621	 0.1098
1701.0907	 0.1127
1703.0194	 0.1465
1704.9481	 0.1513
1706.8768	 0.1571
1708.8054	 0.1749
1710.7341	 0.1798
1712.6628	 0.1697
1714.5915	 0.1458
1716.5201	 0.1219
1718.4488	 0.1290
1720.3775	 0.1661
1722.3062	 0.1839
1724.2348	 0.1849
1726.1635	 0.1892
1728.0922	 0.1822
1730.0209	 0.1704
1731.9495	 0.1462
1733.8782	 0.1221
1735.8069	 0.1471
1737.7356	 0.1687
1739.6642	 0.1599
1741.5929	 0.1644
1743.5216	 0.1712
1745.4503	 0.1702
1747.3789	 0.1615
1749.3076	 0.1486
1751.2363	 0.1516
1753.1650	 0.1750
1755.0936	 0.1816
1757.0223	 0.1758
1758.9510	 0.1801
1760.8797	 0.1720
1762.8083	 0.1747
1764.7370	 0.1905
1766.6657	 0.1829
1768.5943	 0.1707
1770.5230	 0.1560
1772.4517	 0.1464
1774.3804	 0.1672
1776.3090	 0.1889
1778.2377	 0.1905
1780.1664	 0.1857
1782.0951	 0.1877
1784.0237	 0.1886
1785.9524	 0.1910
1787.8811	 0.1968
1789.8098	 0.1816
1791.7384	 0.1601
1793.6671	 0.1685
1795.5958	 0.1878
1797.5245	 0.1896
1799.4531	 0.1814
1801.3818	 0.1808
1803.3105	 0.1918
1805.2392	 0.1998
1807.1678	 0.1989
1809.0965	 0.1928
1811.0252	 0.1901
1812.9539	 0.1974
1814.8825	 0.2026
1816.8112	 0.2014
1818.7399	 0.2019
1820.6686	 0.2037
1822.5972	 0.1968
1824.5259	 0.1851
1826.4546	 0.1858
1828.3833	 0.1806
1830.3119	 0.1764
1832.2406	 0.1936
1834.1693	 0.2033
1836.0979	 0.2011
1838.0266	 0.2014
1839.9553	 0.2035
1841.8840	 0.1895
1843.8126	 0.1694
1845.7413	 0.1781
1847.6700	 0.1958
1849.5987	 0.2025
1851.5273	 0.2060
1853.4560	 0.2066
1855.3847	 0.2065
1857.3134	 0.2058
1859.2420	 0.2051
1861.1707	 0.2055
1863.0994	 0.2059
1865.0281	 0.2011
1866.9567	 0.1855
1868.8854	 0.1765
1870.8141	 0.1907
1872.7428	 0.2056
1874.6714	 0.2078
1876.6001	 0.2077
1878.5288	 0.2075
1880.4575	 0.2078
1882.3861	 0.2074
1884.3148	 0.2068
1886.2435	 0.2059
1888.1722	 0.1983
1890.1008	 0.1959
1892.0295	 0.2036
1893.9582	 0.2043
1895.8869	 0.2035
1897.8155	 0.2075
1899.7442	 0.2089
1901.6729	 0.2086
1903.6016	 0.2085
1905.5302	 0.2078
1907.4589	 0.2048
1909.3876	 0.2026
1911.3162	 0.2055
1913.2449	 0.2093
1915.1736	 0.2059
1917.1023	 0.1952
1919.0309	 0.1959
1920.9596	 0.2014
1922.8883	 0.1998
1924.8170	 0.2047
1926.7456	 0.2101
1928.6743	 0.2103
1930.6030	 0.2103
1932.5317	 0.2100
1934.4603	 0.2102
1936.3890	 0.2105
1938.3177	 0.2107
1940.2464	 0.2055
1942.1750	 0.1981
1944.1037	 0.2012
1946.0324	 0.2077
1947.9611	 0.2099
1949.8897	 0.2111
1951.8184	 0.2112
1953.7471	 0.2105
1955.6758	 0.2104
1957.6044	 0.2111
1959.5331	 0.2112
1961.4618	 0.2111
1963.3905	 0.2111
1965.3191	 0.2079
1967.2478	 0.2054
1969.1765	 0.2088
1971.1052	 0.2119
1973.0338	 0.2121
1974.9625	 0.2121
1976.8912	 0.2121
1978.8198	 0.2122
1980.7485	 0.2122
1982.6772	 0.2123
1984.6059	 0.2123
1986.5345	 0.2112
1988.4632	 0.2096
1990.3919	 0.2062
1992.3206	 0.2046
1994.2492	 0.2094
1996.1779	 0.2126
1998.1066	 0.2123
2000.0353	 0.2124
2001.9639	 0.2127
2003.8926	 0.2128
2005.8213	 0.2127
2007.7500	 0.2125
2009.6786	 0.2126
2011.6073	 0.2129
2013.5360	 0.2126
2015.4647	 0.2102
2017.3933	 0.2088
2019.3220	 0.2109
2021.2507	 0.2127
2023.1794	 0.2128
2025.1080	 0.2129
2027.0367	 0.2130
2028.9654	 0.2132
2030.8941	 0.2133
2032.8227	 0.2133
2034.7514	 0.2133
2036.6801	 0.2133
2038.6088	 0.2129
2040.5374	 0.2119
2042.4661	 0.2120
2044.3948	 0.2129
2046.3234	 0.2133
2048.2521	 0.2135
2050.1808	 0.2135
2052.1095	 0.2136
2054.0381	 0.2136
2055.9668	 0.2136
2057.8955	 0.2136
2059.8242	 0.2134
2061.7528	 0.2133
2063.6815	 0.2121
2065.6102	 0.2118
2067.5389	 0.2132
2069.4675	 0.2139
2071.3962	 0.2138
2073.3249	 0.2138
2075.2536	 0.2138
2077.1822	 0.2138
2079.1109	 0.2139
2081.0396	 0.2140
2082.9683	 0.2140
2084.8969	 0.2140
2086.8256	 0.2139
2088.7543	 0.2134
2090.6830	 0.2134
2092.6116	 0.2140
2094.5403	 0.2142
2096.4690	 0.2142
2098.3977	 0.2142
2100.3263	 0.2143
2102.2550	 0.2143
2104.1837	 0.2143
2106.1124	 0.2143
2108.0410	 0.2143
2109.9697	 0.2144
2111.8984	 0.2144
2113.8271	 0.2142
2115.7557	 0.2142
2117.6844	 0.2144
2119.6131	 0.2145
2121.5417	 0.2145
2123.4704	 0.2145
2125.3991	 0.2145
2127.3278	 0.2145
2129.2564	 0.2145
2131.1851	 0.2146
2133.1138	 0.2145
2135.0425	 0.2144
2136.9711	 0.2143
2138.8998	 0.2144
2140.8285	 0.2146
2142.7572	 0.2146
2144.6858	 0.2146
2146.6145	 0.2146
2148.5432	 0.2146
2150.4719	 0.2146
2152.4005	 0.2146
2154.3292	 0.2146
2156.2579	 0.2147
2158.1866	 0.2147
2160.1152	 0.2146
2162.0439	 0.2145
2163.9726	 0.2146
2165.9013	 0.2147
2167.8299	 0.2147
2169.7586	 0.2147
2171.6873	 0.2146
2173.6160	 0.2146
2175.5446	 0.2147
2177.4733	 0.2147
2179.4020	 0.2146
2181.3307	 0.2146
2183.2593	 0.2146
2185.1880	 0.2146
2187.1167	 0.2146
2189.0453	 0.2146
2190.9740	 0.2146
2192.9027	 0.2146
2194.8314	 0.2145
2196.7600	 0.2145
2198.6887	 0.2145
2200.6174	 0.2145
2202.5461	 0.2145
2204.4747	 0.2144
2206.4034	 0.2144
2208.3321	 0.2144
2210.2608	 0.2144
2212.1894	 0.2144
2214.1181	 0.2144
2216.0468	 0.2144
2217.9755	 0.2144
2219.9041	 0.2144
2221.8328	 0.2144
2223.7615	 0.2144
2225.6902	 0.2144
2227.6188	 0.2143
2229.5475	 0.2142
2231.4762	 0.2141
2233.4049	 0.2141
2235.3335	 0.2140
2237.2622	 0.2139
2239.1909	 0.2138
2241.1196	 0.2137
2243.0482	 0.2135
2244.9769	 0.2133
2246.9056	 0.2132
2248.8343	 0.2129
2250.7629	 0.2127
2252.6916	 0.2124
2254.6203	 0.2120
2256.5490	 0.2116
2258.4776	 0.2113
2260.4063	 0.2109
2262.3350	 0.2105
2264.2636	 0.2101
2266.1923	 0.2098
2268.1210	 0.2096
2270.0497	 0.2095
2271.9783	 0.2094
2273.9070	 0.2095
2275.8357	 0.2096
2277.7644	 0.2100
2279.6930	 0.2105
2281.6217	 0.2111
2283.5504	 0.2110
2285.4791	 0.2098
2287.4077	 0.2078
2289.3364	 0.2058
2291.2651	 0.2036
2293.1938	 0.2012
2295.1224	 0.1987
2297.0511	 0.1959
2298.9798	 0.1928
2300.9085	 0.1892
2302.8371	 0.1852
2304.7658	 0.1800
2306.6945	 0.1737
2308.6232	 0.1668
2310.5518	 0.1596
2312.4805	 0.1529
2314.4092	 0.1472
2316.3379	 0.1408
2318.2665	 0.1321
2320.1952	 0.1229
2322.1239	 0.1157
2324.0526	 0.1111
2325.9812	 0.1076
2327.9099	 0.1027
2329.8386	 0.0975
2331.7672	 0.0951
2333.6959	 0.0946
2335.6246	 0.0932
2337.5533	 0.0913
2339.4819	 0.0899
2341.4106	 0.0899
2343.3393	 0.0919
2345.2680	 0.1006
2347.1966	 0.1203
2349.1253	 0.1303
2351.0540	 0.1145
2352.9827	 0.0929
2354.9113	 0.0793
2356.8400	 0.0711
2358.7687	 0.0668
2360.6974	 0.0655
2362.6260	 0.0667
2364.5547	 0.0701
2366.4834	 0.0757
2368.4121	 0.0837
2370.3407	 0.0939
2372.2694	 0.1064
2374.1981	 0.1210
2376.1268	 0.1376
2378.0554	 0.1556
2379.9841	 0.1732
2381.9128	 0.1885
2383.8415	 0.1996
2385.7701	 0.2063
2387.6988	 0.2096
2389.6275	 0.2110
2391.5562	 0.2115
2393.4848	 0.2115
2395.4135	 0.2115
2397.3422	 0.2115
2399.2708	 0.2114
2401.1995	 0.2114
2403.1282	 0.2113
2405.0569	 0.2113
2406.9855	 0.2112
2408.9142	 0.2112
2410.8429	 0.2111
2412.7716	 0.2111
2414.7002	 0.2110
2416.6289	 0.2110
2418.5576	 0.2109
2420.4863	 0.2108
2422.4149	 0.2108
2424.3436	 0.2107
2426.2723	 0.2107
2428.2010	 0.2106
2430.1296	 0.2106
2432.0583	 0.2105
2433.9870	 0.2104
2435.9157	 0.2104
2437.8443	 0.2103
2439.7730	 0.2102
2441.7017	 0.2102
2443.6304	 0.2101
2445.5590	 0.2101
2447.4877	 0.2100
2449.4164	 0.2099
2451.3451	 0.2099
2453.2737	 0.2098
2455.2024	 0.2097
2457.1311	 0.2097
2459.0598	 0.2096
2460.9884	 0.2095
2462.9171	 0.2095
2464.8458	 0.2094
2466.7745	 0.2093
2468.7031	 0.2092
2470.6318	 0.2092
2472.5605	 0.2091
2474.4891	 0.2090
2476.4178	 0.2090
2478.3465	 0.2089
2480.2752	 0.2088
2482.2038	 0.2088
2484.1325	 0.2087
2486.0612	 0.2086
2487.9899	 0.2085
2489.9185	 0.2085
2491.8472	 0.2084
2493.7759	 0.2083
2495.7046	 0.2083
2497.6332	 0.2082
2499.5619	 0.2081
2501.4906	 0.2080
2503.4193	 0.2080
2505.3479	 0.2079
2507.2766	 0.2078
2509.2053	 0.2077
2511.1340	 0.2077
2513.0626	 0.2076
2514.9913	 0.2075
2516.9200	 0.2075
2518.8487	 0.2074
2520.7773	 0.2073
2522.7060	 0.2072
2524.6347	 0.2072
2526.5634	 0.2071
2528.4920	 0.2070
2530.4207	 0.2069
2532.3494	 0.2068
2534.2781	 0.2068
2536.2067	 0.2067
2538.1354	 0.2066
2540.0641	 0.2065
2541.9927	 0.2064
2543.9214	 0.2064
2545.8501	 0.2063
2547.7788	 0.2062
2549.7074	 0.2061
2551.6361	 0.2060
2553.5648	 0.2060
2555.4935	 0.2059
2557.4221	 0.2058
2559.3508	 0.2057
2561.2795	 0.2056
2563.2082	 0.2055
2565.1368	 0.2054
2567.0655	 0.2053
2568.9942	 0.2053
2570.9229	 0.2052
2572.8515	 0.2051
2574.7802	 0.2050
2576.7089	 0.2049
2578.6376	 0.2048
2580.5662	 0.2047
2582.4949	 0.2046
2584.4236	 0.2045
2586.3523	 0.2045
2588.2809	 0.2044
2590.2096	 0.2043
2592.1383	 0.2042
2594.0670	 0.2041
2595.9956	 0.2040
2597.9243	 0.2039
2599.8530	 0.2038
2601.7817	 0.2037
2603.7103	 0.2036
2605.6390	 0.2035
2607.5677	 0.2034
2609.4964	 0.2034
2611.4250	 0.2033
2613.3537	 0.2032
2615.2824	 0.2031
2617.2110	 0.2030
2619.1397	 0.2029
2621.0684	 0.2028
2622.9971	 0.2027
2624.9257	 0.2026
2626.8544	 0.2025
2628.7831	 0.2024
2630.7118	 0.2023
2632.6404	 0.2022
2634.5691	 0.2021
2636.4978	 0.2020
2638.4265	 0.2019
2640.3551	 0.2018
2642.2838	 0.2017
2644.2125	 0.2016
2646.1412	 0.2015
2648.0698	 0.2014
2649.9985	 0.2013
2651.9272	 0.2012
2653.8559	 0.2011
2655.7845	 0.2010
2657.7132	 0.2009
2659.6419	 0.2008
2661.5706	 0.2007
2663.4992	 0.2006
2665.4279	 0.2005
2667.3566	 0.2004
2669.2853	 0.2003
2671.2139	 0.2002
2673.1426	 0.2001
2675.0713	 0.2000
2677.0000	 0.1999
2678.9286	 0.1998
2680.8573	 0.1997
2682.7860	 0.1996
2684.7146	 0.1995
2686.6433	 0.1994
2688.5720	 0.1993
2690.5007	 0.1992
2692.4293	 0.1991
2694.3580	 0.1990
2696.2867	 0.1989
2698.2154	 0.1988
2700.1440	 0.1987
2702.0727	 0.1986
2704.0014	 0.1984
2705.9301	 0.1983
2707.8587	 0.1982
2709.7874	 0.1981
2711.7161	 0.1980
2713.6448	 0.1979
2715.5734	 0.1978
2717.5021	 0.1977
2719.4308	 0.1976
2721.3595	 0.1974
2723.2881	 0.1973
2725.2168	 0.1972
2727.1455	 0.1971
2729.0742	 0.1970
2731.0028	 0.1969
2732.9315	 0.1968
2734.8602	 0.1967
2736.7889	 0.1966
2738.7175	 0.1964
2740.6462	 0.1963
2742.5749	 0.1962
2744.5036	 0.1961
2746.4322	 0.1960
2748.3609	 0.1959
2750.2896	 0.1958
2752.2182	 0.1956
2754.1469	 0.1955
2756.0756	 0.1954
2758.0043	 0.1953
2759.9329	 0.1952
2761.8616	 0.1951
2763.7903	 0.1949
2765.7190	 0.1948
2767.6476	 0.1947
2769.5763	 0.1946
2771.5050	 0.1945
2773.4337	 0.1943
2775.3623	 0.1942
2777.2910	 0.1941
2779.2197	 0.1939
2781.1484	 0.1938
2783.0770	 0.1937
2785.0057	 0.1935
2786.9344	 0.1934
2788.8631	 0.1933
2790.7917	 0.1932
2792.7204	 0.1930
2794.6491	 0.1929
2796.5778	 0.1927
2798.5064	 0.1926
2800.4351	 0.1924
2802.3638	 0.1923
2804.2925	 0.1922
2806.2211	 0.1921
2808.1498	 0.1919
2810.0785	 0.1918
2812.0072	 0.1916
2813.9358	 0.1914
2815.8645	 0.1913
2817.7932	 0.1911
2819.7219	 0.1910
2821.6505	 0.1908
2823.5792	 0.1906
2825.5079	 0.1904
2827.4365	 0.1902
2829.3652	 0.1900
2831.2939	 0.1898
2833.2226	 0.1895
2835.1512	 0.1891
2837.0799	 0.1887
2839.0086	 0.1881
2840.9373	 0.1871
2842.8659	 0.1856
2844.7946	 0.1830
2846.7233	 0.1802
2848.6520	 0.1792
2850.5806	 0.1804
2852.5093	 0.1821
2854.4380	 0.1833
2856.3667	 0.1840
2858.2953	 0.1844
2860.2240	 0.1846
2862.1527	 0.1848
2864.0814	 0.1849
2866.0100	 0.1850
2867.9387	 0.1851
2869.8674	 0.1852
2871.7961	 0.1852
2873.7247	 0.1851
2875.6534	 0.1851
2877.5821	 0.1850
2879.5108	 0.1849
2881.4394	 0.1847
2883.3681	 0.1845
2885.2968	 0.1842
2887.2255	 0.1840
2889.1541	 0.1837
2891.0828	 0.1834
2893.0115	 0.1830
2894.9401	 0.1827
2896.8688	 0.1823
2898.7975	 0.1819
2900.7262	 0.1815
2902.6548	 0.1810
2904.5835	 0.1805
2906.5122	 0.1797
2908.4409	 0.1789
2910.3695	 0.1776
2912.2982	 0.1755
2914.2269	 0.1724
2916.1556	 0.1696
2918.0842	 0.1689
2920.0129	 0.1701
2921.9416	 0.1714
2923.8703	 0.1725
2925.7989	 0.1734
2927.7276	 0.1743
2929.6563	 0.1752
2931.5850	 0.1759
2933.5136	 0.1765
2935.4423	 0.1770
2937.3710	 0.1775
2939.2997	 0.1779
2941.2283	 0.1782
2943.1570	 0.1784
2945.0857	 0.1784
2947.0144	 0.1783
2948.9430	 0.1782
2950.8717	 0.1781
2952.8004	 0.1780
2954.7291	 0.1777
2956.6577	 0.1776
2958.5864	 0.1775
2960.5151	 0.1776
2962.4438	 0.1777
2964.3724	 0.1778
2966.3011	 0.1779
2968.2298	 0.1780
2970.1584	 0.1782
2972.0871	 0.1782
2974.0158	 0.1782
2975.9445	 0.1783
2977.8731	 0.1783
2979.8018	 0.1783
2981.7305	 0.1783
2983.6592	 0.1785
2985.5878	 0.1784
2987.5165	 0.1782
2989.4452	 0.1782
2991.3739	 0.1782
2993.3025	 0.1780
2995.2312	 0.1780
2997.1599	 0.1781
2999.0886	 0.1781
3001.0172	 0.1780
3002.9459	 0.1777
3004.8746	 0.1776
3006.8033	 0.1777
3008.7319	 0.1774
3010.6606	 0.1768
3012.5893	 0.1765
3014.5180	 0.1765
3016.4466	 0.1766
3018.3753	 0.1768
3020.3040	 0.1770
3022.2327	 0.1768
3024.1613	 0.1766
3026.0900	 0.1764
3028.0187	 0.1762
3029.9474	 0.1754
3031.8760	 0.1748
3033.8047	 0.1751
3035.7334	 0.1755
3037.6620	 0.1757
3039.5907	 0.1757
3041.5194	 0.1756
3043.4481	 0.1754
3045.3767	 0.1752
3047.3054	 0.1747
3049.2341	 0.1744
3051.1628	 0.1746
3053.0914	 0.1745
3055.0201	 0.1738
3056.9488	 0.1735
3058.8775	 0.1737
3060.8061	 0.1738
3062.7348	 0.1733
3064.6635	 0.1725
3066.5922	 0.1724
3068.5208	 0.1729
3070.4495	 0.1732
3072.3782	 0.1732
3074.3069	 0.1730
3076.2355	 0.1725
3078.1642	 0.1719
3080.0929	 0.1715
3082.0216	 0.1717
3083.9502	 0.1719
3085.8789	 0.1718
3087.8076	 0.1718
3089.7363	 0.1718
3091.6649	 0.1716
3093.5936	 0.1709
3095.5223	 0.1702
3097.4510	 0.1703
3099.3796	 0.1700
3101.3083	 0.1696
3103.2370	 0.1699
3105.1656	 0.1702
3107.0943	 0.1700
3109.0230	 0.1698
3110.9517	 0.1696
3112.8803	 0.1693
3114.8090	 0.1687
3116.7377	 0.1684
3118.6664	 0.1684
3120.5950	 0.1683
3122.5237	 0.1680
3124.4524	 0.1681
3126.3811	 0.1681
3128.3097	 0.1683
3130.2384	 0.1682
3132.1671	 0.1675
3134.0958	 0.1674
3136.0244	 0.1679
3137.9531	 0.1678
3139.8818	 0.1676
3141.8105	 0.1674
3143.7391	 0.1673
3145.6678	 0.1671
3147.5965	 0.1670
3149.5252	 0.1668
3151.4538	 0.1666
3153.3825	 0.1664
3155.3112	 0.1663
3157.2399	 0.1661
3159.1685	 0.1660
3161.0972	 0.1658
3163.0259	 0.1656
3164.9546	 0.1654
3166.8832	 0.1652
3168.8119	 0.1650
3170.7406	 0.1648
3172.6693	 0.1647
3174.5979	 0.1645
3176.5266	 0.1637
3178.4553	 0.1633
3180.3839	 0.1637
3182.3126	 0.1637
3184.2413	 0.1632
3186.1700	 0.1631
3188.0986	 0.1632
3190.0273	 0.1631
3191.9560	 0.1630
3193.8847	 0.1627
3195.8133	 0.1620
3197.7420	 0.1615
3199.6707	 0.1617
3201.5994	 0.1620
3203.5280	 0.1619
3205.4567	 0.1617
3207.3854	 0.1613
3209.3141	 0.1607
3211.2427	 0.1606
3213.1714	 0.1603
3215.1001	 0.1601
3217.0288	 0.1602
3218.9574	 0.1598
3220.8861	 0.1597
3222.8148	 0.1600
3224.7435	 0.1600
3226.6721	 0.1596
3228.6008	 0.1592
3230.5295	 0.1591
3232.4582	 0.1591
3234.3868	 0.1590
3236.3155	 0.1588
3238.2442	 0.1587
3240.1729	 0.1587
3242.1015	 0.1584
3244.0302	 0.1577
3245.9589	 0.1576
3247.8875	 0.1582
3249.8162	 0.1583
3251.7449	 0.1578
3253.6736	 0.1572
3255.6022	 0.1571
3257.5309	 0.1572
3259.4596	 0.1572
3261.3883	 0.1572
3263.3169	 0.1571
3265.2456	 0.1569
3267.1743	 0.1569
3269.1030	 0.1568
3271.0316	 0.1563
3272.9603	 0.1556
3274.8890	 0.1552
3276.8177	 0.1553
3278.7463	 0.1557
3280.6750	 0.1557
3282.6037	 0.1555
3284.5324	 0.1554
3286.4610	 0.1553
3288.3897	 0.1550
3290.3184	 0.1546
3292.2471	 0.1543
3294.1757	 0.1545
3296.1044	 0.1545
3298.0331	 0.1542
3299.9618	 0.1543
3301.8904	 0.1542
3303.8191	 0.1541
3305.7478	 0.1538
3307.6765	 0.1531
3309.6051	 0.1527
3311.5338	 0.1528
3313.4625	 0.1528
3315.3911	 0.1530
3317.3198	 0.1530
3319.2485	 0.1529
3321.1772	 0.1527
3323.1058	 0.1524
3325.0345	 0.1521
3326.9632	 0.1519
3328.8919	 0.1520
3330.8205	 0.1520
3332.7492	 0.1517
3334.6779	 0.1510
3336.6066	 0.1507
3338.5352	 0.1510
3340.4639	 0.1512
3342.3926	 0.1511
3344.3213	 0.1510
3346.2499	 0.1508
3348.1786	 0.1507
3350.1073	 0.1505
3352.0360	 0.1503
3353.9646	 0.1498
3355.8933	 0.1494
3357.8220	 0.1493
3359.7507	 0.1491
3361.6793	 0.1487
3363.6080	 0.1484
3365.5367	 0.1480
3367.4654	 0.1481
3369.3940	 0.1485
3371.3227	 0.1487
3373.2514	 0.1486
3375.1801	 0.1484
3377.1087	 0.1482
3379.0374	 0.1480
3380.9661	 0.1478
3382.8948	 0.1472
3384.8234	 0.1467
3386.7521	 0.1470
3388.6808	 0.1473
3390.6094	 0.1465
3392.5381	 0.1456
3394.4668	 0.1458
3396.3955	 0.1457
3398.3241	 0.1457
3400.2528	 0.1461
3402.1815	 0.1459
3404.1102	 0.1459
3406.0388	 0.1460
3407.9675	 0.1459
3409.8962	 0.1458
3411.8249	 0.1456
3413.7535	 0.1454
3415.6822	 0.1454
3417.6109	 0.1446
3419.5396	 0.1429
3421.4682	 0.1424
3423.3969	 0.1437
3425.3256	 0.1445
3427.2543	 0.1444
3429.1829	 0.1441
3431.1116	 0.1438
3433.0403	 0.1439
3434.9690	 0.1440
3436.8976	 0.1438
3438.8263	 0.1435
3440.7550	 0.1425
3442.6837	 0.1418
3444.6123	 0.1408
3446.5410	 0.1388
3448.4697	 0.1399
3450.3984	 0.1426
3452.3270	 0.1430
3454.2557	 0.1427
3456.1844	 0.1424
3458.1130	 0.1422
3460.0417	 0.1414
3461.9704	 0.1407
3463.8991	 0.1410
3465.8277	 0.1412
3467.7564	 0.1412
3469.6851	 0.1416
3471.6138	 0.1415
3473.5424	 0.1409
3475.4711	 0.1407
3477.3998	 0.1411
3479.3285	 0.1397
3481.2571	 0.1376
3483.1858	 0.1383
3485.1145	 0.1397
3487.0432	 0.1390
3488.9718	 0.1391
3490.9005	 0.1403
3492.8292	 0.1403
3494.7579	 0.1391
3496.6865	 0.1386
3498.6152	 0.1392
3500.5439	 0.1372
3502.4726	 0.1335
3504.4012	 0.1347
3506.3299	 0.1377
3508.2586	 0.1363
3510.1873	 0.1355
3512.1159	 0.1379
3514.0446	 0.1395
3515.9733	 0.1395
3517.9020	 0.1388
3519.8306	 0.1380
3521.7593	 0.1349
3523.6880	 0.1322
3525.6167	 0.1319
3527.5453	 0.1317
3529.4740	 0.1334
3531.4027	 0.1371
3533.3313	 0.1386
3535.2600	 0.1368
3537.1887	 0.1366
3539.1174	 0.1387
3541.0460	 0.1384
3542.9747	 0.1338
3544.9034	 0.1278
3546.8321	 0.1277
3548.7607	 0.1334
3550.6894	 0.1338
3552.6181	 0.1322
3554.5468	 0.1357
3556.4754	 0.1382
3558.4041	 0.1366
3560.3328	 0.1343
3562.2615	 0.1327
3564.1901	 0.1248
3566.1188	 0.1111
3568.0475	 0.1122
3569.9762	 0.1283
3571.9048	 0.1373
3573.8335	 0.1372
3575.7622	 0.1365
3577.6909	 0.1362
3579.6195	 0.1361
3581.5482	 0.1365
3583.4769	 0.1340
3585.4056	 0.1212
3587.3342	 0.1098
3589.2629	 0.1187
3591.1916	 0.1306
3593.1203	 0.1277
3595.0489	 0.1241
3596.9776	 0.1274
3598.9063	 0.1287
3600.8349	 0.1289
3602.7636	 0.1334
3604.6923	 0.1336
3606.6210	 0.1226
3608.5496	 0.1151
3610.4783	 0.1179
3612.4070	 0.1178
3614.3357	 0.1199
3616.2643	 0.1208
3618.1930	 0.1113
3620.1217	 0.1131
3622.0504	 0.1284
3623.9790	 0.1354
3625.9077	 0.1238
3627.8364	 0.0979
3629.7651	 0.0970
3631.6937	 0.1204
3633.6224	 0.1303
3635.5511	 0.1347
3637.4798	 0.1388
3639.4084	 0.1392
3641.3371	 0.1389
3643.2658	 0.1378
3645.1945	 0.1252
3647.1231	 0.1005
3649.0518	 0.0862
3650.9805	 0.0995
3652.9092	 0.1248
3654.8378	 0.1258
3656.7665	 0.1222
3658.6952	 0.1355
3660.6239	 0.1429
3662.5525	 0.1434
3664.4812	 0.1434
3666.4099	 0.1356
3668.3385	 0.1127
3670.2672	 0.1013
3672.1959	 0.1106
3674.1246	 0.0983
3676.0532	 0.0910
3677.9819	 0.1132
3679.9106	 0.1296
3681.8393	 0.1369
3683.7679	 0.1397
3685.6966	 0.1294
3687.6253	 0.1074
3689.5540	 0.0986
3691.4826	 0.1119
3693.4113	 0.1289
3695.3400	 0.1358
3697.2687	 0.1366
3699.1973	 0.1321
3701.1260	 0.1224
3703.0547	 0.1252
3704.9834	 0.1341
3706.9120	 0.1297
3708.8407	 0.1140
3710.7694	 0.1002
3712.6981	 0.1058
3714.6267	 0.1258
3716.5554	 0.1339
3718.4841	 0.1294
3720.4128	 0.1226
3722.3414	 0.1173
3724.2701	 0.1152
3726.1988	 0.1152
3728.1275	 0.1221
3730.0561	 0.1188
3731.9848	 0.1023
3733.9135	 0.0897
3735.8422	 0.0880
3737.7708	 0.1032
3739.6995	 0.1190
3741.6282	 0.1119
3743.5568	 0.0861
3745.4855	 0.0861
3747.4142	 0.0992
3749.3429	 0.0880
3751.2715	 0.0832
3753.2002	 0.1019
3755.1289	 0.1204
3757.0576	 0.1207
3758.9862	 0.1158
3760.9149	 0.1239
3762.8436	 0.1316
3764.7723	 0.1259
3766.7009	 0.1232
3768.6296	 0.1196
3770.5583	 0.1198
3772.4870	 0.1325
3774.4156	 0.1390
3776.3443	 0.1354
3778.2730	 0.1252
3780.2017	 0.1240
3782.1303	 0.1317
3784.0590	 0.1313
3785.9877	 0.1318
3787.9164	 0.1364
3789.8450	 0.1376
3791.7737	 0.1378
3793.7024	 0.1330
3795.6311	 0.1217
3797.5597	 0.1189
3799.4884	 0.1099
3801.4171	 0.0968
3803.3458	 0.1098
3805.2744	 0.1146
3807.2031	 0.1096
3809.1318	 0.1244
3811.0604	 0.1358
3812.9891	 0.1290
3814.9178	 0.1087
3816.8465	 0.1045
3818.7751	 0.1069
3820.7038	 0.0944
3822.6325	 0.1045
3824.5612	 0.1214
3826.4898	 0.1217
3828.4185	 0.1239
3830.3472	 0.1205
3832.2759	 0.1141
3834.2045	 0.1107
3836.1332	 0.1002
3838.0619	 0.0927
3839.9906	 0.0999
3841.9192	 0.1096
3843.8479	 0.1165
3845.7766	 0.1264
3847.7053	 0.1299
3849.6339	 0.1177
3851.5626	 0.0882
3853.4913	 0.0698
3855.4200	 0.0898
3857.3486	 0.1172
3859.2773	 0.1242
3861.2060	 0.1178
3863.1347	 0.1076
3865.0633	 0.1072
3866.9920	 0.1117
3868.9207	 0.1011
3870.8494	 0.1004
3872.7780	 0.1100
3874.7067	 0.1150
3876.6354	 0.1247
3878.5641	 0.1185
3880.4927	 0.1083
3882.4214	 0.1138
3884.3501	 0.1091
3886.2787	 0.1083
3888.2074	 0.1204
3890.1361	 0.1151
3892.0648	 0.1111
3893.9934	 0.1230
3895.9221	 0.1267
3897.8508	 0.1147
3899.7795	 0.1028
3901.7081	 0.0988
3903.6368	 0.0989
3905.5655	 0.1095
3907.4942	 0.1246
3909.4228	 0.1307
3911.3515	 0.1309
3913.2802	 0.1297
3915.2089	 0.1227
3917.1375	 0.1161
3919.0662	 0.1176
3920.9949	 0.1224
3922.9236	 0.1220
3924.8522	 0.1201
3926.7809	 0.1240
3928.7096	 0.1246
3930.6383	 0.1191
3932.5669	 0.1180
3934.4956	 0.1241
3936.4243	 0.1283
3938.3530	 0.1283
3940.2816	 0.1254
3942.2103	 0.1206
3944.1390	 0.1220
3946.0677	 0.1241
3947.9963	 0.1213
3949.9250	 0.1216
3951.8537	 0.1250
3953.7823	 0.1269
3955.7110	 0.1269
3957.6397	 0.1267
3959.5684	 0.1261
3961.4970	 0.1252
3963.4257	 0.1261
3965.3544	 0.1274
3967.2831	 0.1270
3969.2117	 0.1262
3971.1404	 0.1259
3973.0691	 0.1254
3974.9978	 0.1252
3976.9264	 0.1259
3978.8551	 0.1265
3980.7838	 0.1262
3982.7125	 0.1260
3984.6411	 0.1263
3986.5698	 0.1263
3988.4985	 0.1257
3990.4272	 0.1251
3992.3558	 0.1252
3994.2845	 0.1251
3996.2132	 0.1252
3998.1419	 0.1257
4000.0705	 0.1256
4001.9992	 0.1254
4003.9279	 0.1253
4005.8566	 0.1249
4007.7852	 0.1242
4009.7139	 0.1242
4011.6426	 0.1246
4013.5713	 0.1246
4015.4999	 0.1245
4017.4286	 0.1242
4019.3573	 0.1238
4021.2859	 0.1240
4023.2146	 0.1238
4025.1433	 0.1234
4027.0720	 0.1235
4029.0006	 0.1237
4030.9293	 0.1235
4032.8580	 0.1235
4034.7867	 0.1234
4036.7153	 0.1233
4038.6440	 0.1232
4040.5727	 0.1231
4042.5014	 0.1225
4044.4300	 0.1219
4046.3587	 0.1222
4048.2874	 0.1226
4050.2161	 0.1225
4052.1447	 0.1223
4054.0734	 0.1222
4056.0021	 0.1221
4057.9308	 0.1219
4059.8594	 0.1216
4061.7881	 0.1216
4063.7168	 0.1216
4065.6455	 0.1215
4067.5741	 0.1214
4069.5028	 0.1213
4071.4315	 0.1211
4073.3602	 0.1209
4075.2888	 0.1208
4077.2175	 0.1206
4079.1462	 0.1203
4081.0749	 0.1203
4083.0035	 0.1203
4084.9322	 0.1202
4086.8609	 0.1199
4088.7896	 0.1198
4090.7182	 0.1198
4092.6469	 0.1198
4094.5756	 0.1197
4096.5042	 0.1196
4098.4329	 0.1194
4100.3616	 0.1193
4102.2903	 0.1191
4104.2189	 0.1187
4106.1476	 0.1184
4108.0763	 0.1186
4110.0050	 0.1187
4111.9336	 0.1186
4113.8623	 0.1185
4115.7910	 0.1183
4117.7197	 0.1182
4119.6483	 0.1181
4121.5770	 0.1179
4123.5057	 0.1178
4125.4344	 0.1177
4127.3630	 0.1176
4129.2917	 0.1175
4131.2204	 0.1173
4133.1491	 0.1170
4135.0777	 0.1169
4137.0064	 0.1168
4138.9351	 0.1167
4140.8638	 0.1166
4142.7924	 0.1166
4144.7211	 0.1164
4146.6498	 0.1163
4148.5785	 0.1162
4150.5071	 0.1161
4152.4358	 0.1159
4154.3645	 0.1158
4156.2932	 0.1157
4158.2218	 0.1156
4160.1505	 0.1155
4162.0792	 0.1154
4164.0078	 0.1152
4165.9365	 0.1151
4167.8652	 0.1150
4169.7939	 0.1149
4171.7225	 0.1147
4173.6512	 0.1146
4175.5799	 0.1145
4177.5086	 0.1144
4179.4372	 0.1142
4181.3659	 0.1141
4183.2946	 0.1140
4185.2233	 0.1139
4187.1519	 0.1137
4189.0806	 0.1136
4191.0093	 0.1135
4192.9380	 0.1134
4194.8666	 0.1132
4196.7953	 0.1131
4198.7240	 0.1130
4200.6527	 0.1129
4202.5813	 0.1128
4204.5100	 0.1126
4206.4387	 0.1125
4208.3674	 0.1124
4210.2960	 0.1123
4212.2247	 0.1122
4214.1534	 0.1121
4216.0821	 0.1119
4218.0107	 0.1118
4219.9394	 0.1117
4221.8681	 0.1116
4223.7968	 0.1114
4225.7254	 0.1113
4227.6541	 0.1112
4229.5828	 0.1111
4231.5115	 0.1110
4233.4401	 0.1109
4235.3688	 0.1107
4237.2975	 0.1106
4239.2261	 0.1105
4241.1548	 0.1104
4243.0835	 0.1102
4245.0122	 0.1101
4246.9408	 0.1100
4248.8695	 0.1098
4250.7982	 0.1097
4252.7269	 0.1096
4254.6555	 0.1095
4256.5842	 0.1094
4258.5129	 0.1093
4260.4416	 0.1091
4262.3702	 0.1090
4264.2989	 0.1089
4266.2276	 0.1088
4268.1563	 0.1087
4270.0849	 0.1085
4272.0136	 0.1084
4273.9423	 0.1083
4275.8710	 0.1082
4277.7996	 0.1081
4279.7283	 0.1080
4281.6570	 0.1078
4283.5857	 0.1077
4285.5143	 0.1076
4287.4430	 0.1075
4289.3717	 0.1073
4291.3004	 0.1072
4293.2290	 0.1071
4295.1577	 0.1070
4297.0864	 0.1068
4299.0151	 0.1067
4300.9437	 0.1066
4302.8724	 0.1065
4304.8011	 0.1064
4306.7297	 0.1062
4308.6584	 0.1061
4310.5871	 0.1060
4312.5158	 0.1059
4314.4444	 0.1057
4316.3731	 0.1056
4318.3018	 0.1055
4320.2305	 0.1054
4322.1591	 0.1052
4324.0878	 0.1051
4326.0165	 0.1050
4327.9452	 0.1049
4329.8738	 0.1048
4331.8025	 0.1046
4333.7312	 0.1045
4335.6599	 0.1044
4337.5885	 0.1043
4339.5172	 0.1042
4341.4459	 0.1040
4343.3746	 0.1039
4345.3032	 0.1038
4347.2319	 0.1037
4349.1606	 0.1036
4351.0893	 0.1034
4353.0179	 0.1033
4354.9466	 0.1032
4356.8753	 0.1031
4358.8040	 0.1029
4360.7326	 0.1028
4362.6613	 0.1027
4364.5900	 0.1026
4366.5187	 0.1025
4368.4473	 0.1024
4370.3760	 0.1022
4372.3047	 0.1021
4374.2333	 0.1020
4376.1620	 0.1019
4378.0907	 0.1017
4380.0194	 0.1016
4381.9480	 0.1015
4383.8767	 0.1014
4385.8054	 0.1013
4387.7341	 0.1012
4389.6627	 0.1011
4391.5914	 0.1009
4393.5201	 0.1008
4395.4488	 0.1007
4397.3774	 0.1006
4399.3061	 0.1005
4401.2348	 0.1003
4403.1635	 0.1002
4405.0921	 0.1001
4407.0208	 0.1000
4408.9495	 0.0999
4410.8782	 0.0998
4412.8068	 0.0996
4414.7355	 0.0995
4416.6642	 0.0994
4418.5929	 0.0993
4420.5215	 0.0992
4422.4502	 0.0990
4424.3789	 0.0989
4426.3076	 0.0988
4428.2362	 0.0987
4430.1649	 0.0986
4432.0936	 0.0984
4434.0223	 0.0983
4435.9509	 0.0982
4437.8796	 0.0981
4439.8083	 0.0980
4441.7370	 0.0979
4443.6656	 0.0977
4445.5943	 0.0976
4447.5230	 0.0975
4449.4516	 0.0974
4451.3803	 0.0973
4453.3090	 0.0971
4455.2377	 0.0970
4457.1663	 0.0969
4459.0950	 0.0968
4461.0237	 0.0967
4462.9524	 0.0966
4464.8810	 0.0964
4466.8097	 0.0963
4468.7384	 0.0962
4470.6671	 0.0961
4472.5957	 0.0960
4474.5244	 0.0959
4476.4531	 0.0957
4478.3818	 0.0956
4480.3104	 0.0955
4482.2391	 0.0954
4484.1678	 0.0953
4486.0965	 0.0951
4488.0251	 0.0950
4489.9538	 0.0949
4491.8825	 0.0948
4493.8112	 0.0947
4495.7398	 0.0946
4497.6685	 0.0944
4499.5972	 0.0943
4501.5259	 0.0942
4503.4545	 0.0941
4505.3832	 0.0940
4507.3119	 0.0939
4509.2406	 0.0937
4511.1692	 0.0936
4513.0979	 0.0935
4515.0266	 0.0934
4516.9552	 0.0933
4518.8839	 0.0932
4520.8126	 0.0930
4522.7413	 0.0929
4524.6699	 0.0928
4526.5986	 0.0927
4528.5273	 0.0926
4530.4560	 0.0925
4532.3846	 0.0924
4534.3133	 0.0922
4536.2420	 0.0921
4538.1707	 0.0920
4540.0993	 0.0919
4542.0280	 0.0918
4543.9567	 0.0917
4545.8854	 0.0915
4547.8140	 0.0914
4549.7427	 0.0913
4551.6714	 0.0912
4553.6001	 0.0911
4555.5287	 0.0910
4557.4574	 0.0909
4559.3861	 0.0907
4561.3148	 0.0906
4563.2434	 0.0905
4565.1721	 0.0904
4567.1008	 0.0903
4569.0295	 0.0902
4570.9581	 0.0900
4572.8868	 0.0899
4574.8155	 0.0898
4576.7442	 0.0897
4578.6728	 0.0896
4580.6015	 0.0895
4582.5302	 0.0894
4584.4589	 0.0893
4586.3875	 0.0891
4588.3162	 0.0890
4590.2449	 0.0889
4592.1735	 0.0888
4594.1022	 0.0887
4596.0309	 0.0886
4597.9596	 0.0885
4599.8882	 0.0883
4601.8169	 0.0882
4603.7456	 0.0881
4605.6743	 0.0880
4607.6029	 0.0879
4609.5316	 0.0878
4611.4603	 0.0877
4613.3890	 0.0876
4615.3176	 0.0875
4617.2463	 0.0873
4619.1750	 0.0872
4621.1037	 0.0871
4623.0323	 0.0870
4624.9610	 0.0869
4626.8897	 0.0868
4628.8184	 0.0867
4630.7470	 0.0866
4632.6757	 0.0865
4634.6044	 0.0863
4636.5331	 0.0862
4638.4617	 0.0861
4640.3904	 0.0860
4642.3191	 0.0859
4644.2478	 0.0858
4646.1764	 0.0857
4648.1051	 0.0856
4650.0338	 0.0854
4651.9625	 0.0853
4653.8911	 0.0852
4655.8198	 0.0851
4657.7485	 0.0850
4659.6771	 0.0849
4661.6058	 0.0848
4663.5345	 0.0847
4665.4632	 0.0846
4667.3918	 0.0844
4669.3205	 0.0843
4671.2492	 0.0842
4673.1779	 0.0841
4675.1065	 0.0840
4677.0352	 0.0839
4678.9639	 0.0838
4680.8926	 0.0837
4682.8212	 0.0836
4684.7499	 0.0835
4686.6786	 0.0834
4688.6073	 0.0832
4690.5359	 0.0831
4692.4646	 0.0830
4694.3933	 0.0829
4696.3220	 0.0828
4698.2506	 0.0827
4700.1793	 0.0826
4702.1080	 0.0825
4704.0367	 0.0824
4705.9653	 0.0823
4707.8940	 0.0822
4709.8227	 0.0821
4711.7514	 0.0819
4713.6800	 0.0818
4715.6087	 0.0817
4717.5374	 0.0816
4719.4661	 0.0815
4721.3947	 0.0814
4723.3234	 0.0813
4725.2521	 0.0812
4727.1807	 0.0811
4729.1094	 0.0810
4731.0381	 0.0809
4732.9668	 0.0808
4734.8954	 0.0807
4736.8241	 0.0805
4738.7528	 0.0804
4740.6815	 0.0803
4742.6101	 0.0802
4744.5388	 0.0801
4746.4675	 0.0800
4748.3962	 0.0799
4750.3248	 0.0798
4752.2535	 0.0797
4754.1822	 0.0796
4756.1109	 0.0795
4758.0395	 0.0794
4759.9682	 0.0793
4761.8969	 0.0792
4763.8256	 0.0791
4765.7542	 0.0790
4767.6829	 0.0789
4769.6116	 0.0788
4771.5403	 0.0786
4773.4689	 0.0785
4775.3976	 0.0784
4777.3263	 0.0783
4779.2550	 0.0782
4781.1836	 0.0781
4783.1123	 0.0780
4785.0410	 0.0779
4786.9697	 0.0778
4788.8983	 0.0777
4790.8270	 0.0776
4792.7557	 0.0775
4794.6844	 0.0774
4796.6130	 0.0773
4798.5417	 0.0772
4800.4704	 0.0771
4802.3990	 0.0770
4804.3277	 0.0769
4806.2564	 0.0768
4808.1851	 0.0767
4810.1137	 0.0766
4812.0424	 0.0764
4813.9711	 0.0763
4815.8998	 0.0762
4817.8284	 0.0761
4819.7571	 0.0760
4821.6858	 0.0760
4823.6145	 0.0758
4825.5431	 0.0757
4827.4718	 0.0756
4829.4005	 0.0755
4831.3292	 0.0754
4833.2578	 0.0753
4835.1865	 0.0752
4837.1152	 0.0751
4839.0439	 0.0750
4840.9725	 0.0749
4842.9012	 0.0748
4844.8299	 0.0747
4846.7586	 0.0746
4848.6872	 0.0745
4850.6159	 0.0744
4852.5446	 0.0743
4854.4733	 0.0742
4856.4019	 0.0741
4858.3306	 0.0740
4860.2593	 0.0739
4862.1880	 0.0738
4864.1166	 0.0737
4866.0453	 0.0736
4867.9740	 0.0735
4869.9026	 0.0734
4871.8313	 0.0733
4873.7600	 0.0732
4875.6887	 0.0731
4877.6173	 0.0730
4879.5460	 0.0729
4881.4747	 0.0728
4883.4034	 0.0727
4885.3320	 0.0726
4887.2607	 0.0725
4889.1894	 0.0724
4891.1181	 0.0723
4893.0467	 0.0722
4894.9754	 0.0721
4896.9041	 0.0720
4898.8328	 0.0719
4900.7614	 0.0718
4902.6901	 0.0717
4904.6188	 0.0716
4906.5475	 0.0716
4908.4761	 0.0715
4910.4048	 0.0714
4912.3335	 0.0713
4914.2622	 0.0712
4916.1908	 0.0711
4918.1195	 0.0710
4920.0482	 0.0709
4921.9769	 0.0708
4923.9055	 0.0707
4925.8342	 0.0706
4927.7629	 0.0705
4929.6916	 0.0704
4931.6202	 0.0703
4933.5489	 0.0702
4935.4776	 0.0701
4937.4062	 0.0700
4939.3349	 0.0699
4941.2636	 0.0698
4943.1923	 0.0697
4945.1209	 0.0696
4947.0496	 0.0695
4948.9783	 0.0694
4950.9070	 0.0693
4952.8356	 0.0692
4954.7643	 0.0691
4956.6930	 0.0690
4958.6217	 0.0689
4960.5503	 0.0688
4962.4790	 0.0687
4964.4077	 0.0686
4966.3364	 0.0685
4968.2650	 0.0684
4970.1937	 0.0684
4972.1224	 0.0683
4974.0511	 0.0682
4975.9797	 0.0681
4977.9084	 0.0680
4979.8371	 0.0679
4981.7658	 0.0678
4983.6944	 0.0677
4985.6231	 0.0676
4987.5518	 0.0675
4989.4805	 0.0674
4991.4091	 0.0673
4993.3378	 0.0672
4995.2665	 0.0671
4997.1952	 0.0670
4999.1238	 0.0670
5001.0525	 0.0669
5002.9812	 0.0668
5004.9099	 0.0667
5006.8385	 0.0666
5008.7672	 0.0665
5010.6959	 0.0664
5012.6245	 0.0664
5014.5532	 0.0663
5016.4819	 0.0662
5018.4106	 0.0661
5020.3392	 0.0660
5022.2679	 0.0659
5024.1966	 0.0658
5026.1253	 0.0657
5028.0539	 0.0656
5029.9826	 0.0655
5031.9113	 0.0654
5033.8400	 0.0654
5035.7686	 0.0653
5037.6973	 0.0652
5039.6260	 0.0651
5041.5547	 0.0650
5043.4833	 0.0649
5045.4120	 0.0648
5047.3407	 0.0647
5049.2694	 0.0646
5051.1980	 0.0645
5053.1267	 0.0645
5055.0554	 0.0644
5056.9841	 0.0643
5058.9127	 0.0642
5060.8414	 0.0641
5062.7701	 0.0640
5064.6988	 0.0639
5066.6274	 0.0638
5068.5561	 0.0637
5070.4848	 0.0636
5072.4135	 0.0635
5074.3421	 0.0635
5076.2708	 0.0634
5078.1995	 0.0633
5080.1281	 0.0632
5082.0568	 0.0631
5083.9855	 0.0630
5085.9142	 0.0630
5087.8428	 0.0629
5089.7715	 0.0628
5091.7002	 0.0626
5093.6289	 0.0625
5095.5575	 0.0624
5097.4862	 0.0623
5099.4149	 0.0623
5101.3436	 0.0622
5103.2722	 0.0621
5105.2009	 0.0620
5107.1296	 0.0619
5109.0583	 0.0618
5110.9869	 0.0617
5112.9156	 0.0616
5114.8443	 0.0615
5116.7730	 0.0614
5118.7016	 0.0612
5120.6303	 0.0612
5122.5590	 0.0613
5124.4877	 0.0612
5126.4163	 0.0611
5128.3450	 0.0610
5130.2737	 0.0609
5132.2024	 0.0607
5134.1310	 0.0606
5136.0597	 0.0606
5137.9884	 0.0606
5139.9171	 0.0603
5141.8457	 0.0600
5143.7744	 0.0601
5145.7031	 0.0602
5147.6318	 0.0602
5149.5604	 0.0599
5151.4891	 0.0598
5153.4178	 0.0596
5155.3464	 0.0591
5157.2751	 0.0590
5159.2038	 0.0593
5161.1325	 0.0591
5163.0611	 0.0587
5164.9898	 0.0588
5166.9185	 0.0592
5168.8472	 0.0589
5170.7758	 0.0585
5172.7045	 0.0588
5174.6332	 0.0588
5176.5619	 0.0586
5178.4905	 0.0584
5180.4192	 0.0583
5182.3479	 0.0580
5184.2766	 0.0572
5186.2052	 0.0573
5188.1339	 0.0577
5190.0626	 0.0578
5191.9913	 0.0581
5193.9199	 0.0579
5195.8486	 0.0569
5197.7773	 0.0568
5199.7060	 0.0576
5201.6346	 0.0579
5203.5633	 0.0565
5205.4920	 0.0539
5207.4207	 0.0534
5209.3493	 0.0553
5211.2780	 0.0570
5213.2067	 0.0574
5215.1354	 0.0571
5217.0640	 0.0564
5218.9927	 0.0562
5220.9214	 0.0565
5222.8500	 0.0555
5224.7787	 0.0538
5226.7074	 0.0545
5228.6361	 0.0557
5230.5647	 0.0553
5232.4934	 0.0553
5234.4221	 0.0559
5236.3508	 0.0561
5238.2794	 0.0561
5240.2081	 0.0561
5242.1368	 0.0549
5244.0655	 0.0535
5245.9941	 0.0528
5247.9228	 0.0523
5249.8515	 0.0539
5251.7802	 0.0550
5253.7088	 0.0534
5255.6375	 0.0534
5257.5662	 0.0549
5259.4949	 0.0547
5261.4235	 0.0528
5263.3522	 0.0514
5265.2809	 0.0524
5267.2096	 0.0538
5269.1382	 0.0540
5271.0669	 0.0546
5272.9956	 0.0550
5274.9243	 0.0550
5276.8529	 0.0548
5278.7816	 0.0542
5280.7103	 0.0540
5282.6390	 0.0538
5284.5676	 0.0535
5286.4963	 0.0537
5288.4250	 0.0530
5290.3536	 0.0521
5292.2823	 0.0532
5294.2110	 0.0542
5296.1397	 0.0541
5298.0683	 0.0537
5299.9970	 0.0534
5301.9257	 0.0535
5303.8544	 0.0535
5305.7830	 0.0524
5307.7117	 0.0518
5309.6404	 0.0528
5311.5691	 0.0535
5313.4977	 0.0532
5315.4264	 0.0529
5317.3551	 0.0529
5319.2838	 0.0531
5321.2124	 0.0531
5323.1411	 0.0529
5325.0698	 0.0516
5326.9985	 0.0502
5328.9271	 0.0508
5330.8558	 0.0514
5332.7845	 0.0512
5334.7132	 0.0510
5336.6418	 0.0486
5338.5705	 0.0475
5340.4992	 0.0497
5342.4279	 0.0492
5344.3565	 0.0470
5346.2852	 0.0484
5348.2139	 0.0503
5350.1426	 0.0503
5352.0712	 0.0486
5353.9999	 0.0480
5355.9286	 0.0502
5357.8573	 0.0517
5359.7859	 0.0516
5361.7146	 0.0509
5363.6433	 0.0503
5365.5719	 0.0507
5367.5006	 0.0512
5369.4293	 0.0513
5371.3580	 0.0510
5373.2866	 0.0498
5375.2153	 0.0479
5377.1440	 0.0476
5379.0727	 0.0497
5381.0013	 0.0508
5382.9300	 0.0498
5384.8587	 0.0483
5386.7874	 0.0486
5388.7160	 0.0502
5390.6447	 0.0499
5392.5734	 0.0478
5394.5021	 0.0471
5396.4307	 0.0483
5398.3594	 0.0496
5400.2881	 0.0501
5402.2168	 0.0497
5404.1454	 0.0494
5406.0741	 0.0495
5408.0028	 0.0483
5409.9315	 0.0466
5411.8601	 0.0455
5413.7888	 0.0454
5415.7175	 0.0475
5417.6462	 0.0494
5419.5748	 0.0495
5421.5035	 0.0493
5423.4322	 0.0491
5425.3609	 0.0485
5427.2895	 0.0463
5429.2182	 0.0454
5431.1469	 0.0471
5433.0755	 0.0469
5435.0042	 0.0460
5436.9329	 0.0476
5438.8616	 0.0475
5440.7902	 0.0459
5442.7189	 0.0460
5444.6476	 0.0458
5446.5763	 0.0457
5448.5049	 0.0464
5450.4336	 0.0471
5452.3623	 0.0481
5454.2910	 0.0479
5456.2196	 0.0474
5458.1483	 0.0471
5460.0770	 0.0461
5462.0057	 0.0461
5463.9343	 0.0468
5465.8630	 0.0468
5467.7917	 0.0466
5469.7204	 0.0470
5471.6490	 0.0474
5473.5777	 0.0458
5475.5064	 0.0447
5477.4351	 0.0463
5479.3637	 0.0475
5481.2924	 0.0474
5483.2211	 0.0474
5485.1498	 0.0469
5487.0784	 0.0461
5489.0071	 0.0457
5490.9358	 0.0453
5492.8645	 0.0448
5494.7931	 0.0458
5496.7218	 0.0466
5498.6505	 0.0464
5500.5792	 0.0465
5502.5078	 0.0464
5504.4365	 0.0461
5506.3652	 0.0456
5508.2938	 0.0456
5510.2225	 0.0461
5512.1512	 0.0464
5514.0799	 0.0461
5516.0085	 0.0458
5517.9372	 0.0458
5519.8659	 0.0457
5521.7946	 0.0455
5523.7232	 0.0457
5525.6519	 0.0459
5527.5806	 0.0458
5529.5093	 0.0457
5531.4379	 0.0457
5533.3666	 0.0455
5535.2953	 0.0452
5537.2240	 0.0452
5539.1526	 0.0454
5541.0813	 0.0454
5543.0100	 0.0453
5544.9387	 0.0452
5546.8673	 0.0451
5548.7960	 0.0450
5550.7247	 0.0449
5552.6534	 0.0448
5554.5820	 0.0448
5556.5107	 0.0449
5558.4394	 0.0449
5560.3681	 0.0448
5562.2967	 0.0448
5564.2254	 0.0447
5566.1541	 0.0446
5568.0828	 0.0446
5570.0114	 0.0445
5571.9401	 0.0444
5573.8688	 0.0444
5575.7974	 0.0443
5577.7261	 0.0443
5579.6548	 0.0442
5581.5835	 0.0442
5583.5121	 0.0441
5585.4408	 0.0441
5587.3695	 0.0440
5589.2982	 0.0439
5591.2268	 0.0439
5593.1555	 0.0438
5595.0842	 0.0437
5597.0129	 0.0437
5598.9415	 0.0436
5600.8702	 0.0435
5602.7989	 0.0435
5604.7276	 0.0434
5606.6562	 0.0434
5608.5849	 0.0433
5610.5136	 0.0433
5612.4423	 0.0432
5614.3709	 0.0431
5616.2996	 0.0431
5618.2283	 0.0430
5620.1570	 0.0430
5622.0856	 0.0429
5624.0143	 0.0429
5625.9430	 0.0428
5627.8717	 0.0427
5629.8003	 0.0427
5631.7290	 0.0426
5633.6577	 0.0426
5635.5864	 0.0425
5637.5150	 0.0424
5639.4437	 0.0424
5641.3724	 0.0423
5643.3010	 0.0423
5645.2297	 0.0422
5647.1584	 0.0422
5649.0871	 0.0421
5651.0157	 0.0420
5652.9444	 0.0420
5654.8731	 0.0419
5656.8018	 0.0419
5658.7304	 0.0418
5660.6591	 0.0417
5662.5878	 0.0417
5664.5165	 0.0416
5666.4451	 0.0416
5668.3738	 0.0415
5670.3025	 0.0415
5672.2312	 0.0414
5674.1598	 0.0413
5676.0885	 0.0413
5678.0172	 0.0412
5679.9459	 0.0412
5681.8745	 0.0411
5683.8032	 0.0411
5685.7319	 0.0410
5687.6606	 0.0409
5689.5892	 0.0409
5691.5179	 0.0408
5693.4466	 0.0408
5695.3753	 0.0407
5697.3039	 0.0406
5699.2326	 0.0406
5701.1613	 0.0406
5703.0900	 0.0405
5705.0186	 0.0404
5706.9473	 0.0404
5708.8760	 0.0403
5710.8047	 0.0403
5712.7333	 0.0402
5714.6620	 0.0402
5716.5907	 0.0401
5718.5193	 0.0400
5720.4480	 0.0400
5722.3767	 0.0399
5724.3054	 0.0399
5726.2340	 0.0398
5728.1627	 0.0398
5730.0914	 0.0397
5732.0201	 0.0397
5733.9487	 0.0396
5735.8774	 0.0396
5737.8061	 0.0395
5739.7348	 0.0394
5741.6634	 0.0394
5743.5921	 0.0393
5745.5208	 0.0393
5747.4495	 0.0392
5749.3781	 0.0392
5751.3068	 0.0391
5753.2355	 0.0391
5755.1642	 0.0390
5757.0928	 0.0389
5759.0215	 0.0389
5760.9502	 0.0388
5762.8789	 0.0388
5764.8075	 0.0387
5766.7362	 0.0387
5768.6649	 0.0386
5770.5936	 0.0386
5772.5222	 0.0385
5774.4509	 0.0384
5776.3796	 0.0384
5778.3083	 0.0383
5780.2369	 0.0383
5782.1656	 0.0382
5784.0943	 0.0382
5786.0229	 0.0381
5787.9516	 0.0381
5789.8803	 0.0380
5791.8090	 0.0380
5793.7376	 0.0379
5795.6663	 0.0379
5797.5950	 0.0378
5799.5237	 0.0378
5801.4523	 0.0377
5803.3810	 0.0377
5805.3097	 0.0376
5807.2384	 0.0375
5809.1670	 0.0375
5811.0957	 0.0374
5813.0244	 0.0374
5814.9531	 0.0373
5816.8817	 0.0373
5818.8104	 0.0372
5820.7391	 0.0372
5822.6678	 0.0371
5824.5964	 0.0371
5826.5251	 0.0370
5828.4538	 0.0370
5830.3825	 0.0369
5832.3111	 0.0369
5834.2398	 0.0368
5836.1685	 0.0368
5838.0972	 0.0367
5840.0258	 0.0367
5841.9545	 0.0366
5843.8832	 0.0366
5845.8119	 0.0365
5847.7405	 0.0364
5849.6692	 0.0364
5851.5979	 0.0363
5853.5266	 0.0363
5855.4552	 0.0362
5857.3839	 0.0362
5859.3126	 0.0361
5861.2412	 0.0361
5863.1699	 0.0361
5865.0986	 0.0360
5867.0273	 0.0359
5868.9559	 0.0359
5870.8846	 0.0358
5872.8133	 0.0358
5874.7420	 0.0357
5876.6706	 0.0357
5878.5993	 0.0356
5880.5280	 0.0356
5882.4567	 0.0355
5884.3853	 0.0355
5886.3140	 0.0354
5888.2427	 0.0354
5890.1714	 0.0353
5892.1000	 0.0353
5894.0287	 0.0352
5895.9574	 0.0352
5897.8861	 0.0351
5899.8147	 0.0351
5901.7434	 0.0350
5903.6721	 0.0350
5905.6008	 0.0349
5907.5294	 0.0349
5909.4581	 0.0348
5911.3868	 0.0348
5913.3155	 0.0347
5915.2441	 0.0347
5917.1728	 0.0346
5919.1015	 0.0346
5921.0302	 0.0345
5922.9588	 0.0345
5924.8875	 0.0344
5926.8162	 0.0344
5928.7448	 0.0343
5930.6735	 0.0343
5932.6022	 0.0342
5934.5309	 0.0342
5936.4595	 0.0341
5938.3882	 0.0341
5940.3169	 0.0340
5942.2456	 0.0340
5944.1742	 0.0339
5946.1029	 0.0339
5948.0316	 0.0338
5949.9603	 0.0338
5951.8889	 0.0337
5953.8176	 0.0337
5955.7463	 0.0337
5957.6750	 0.0336
5959.6036	 0.0336
5961.5323	 0.0335
5963.4610	 0.0335
5965.3897	 0.0334
5967.3183	 0.0334
5969.2470	 0.0333
5971.1757	 0.0333
5973.1044	 0.0332
5975.0330	 0.0332
5976.9617	 0.0331
5978.8904	 0.0331
5980.8191	 0.0330
5982.7477	 0.0330
5984.6764	 0.0329
5986.6051	 0.0329
5988.5338	 0.0328
5990.4624	 0.0328
5992.3911	 0.0327
5994.3198	 0.0327
5996.2484	 0.0326
5998.1771	 0.0326
6000.1058	 0.0325
6002.0345	 0.0325
6003.9631	 0.0325
6005.8918	 0.0324
6007.8205	 0.0324
6009.7492	 0.0323
6011.6778	 0.0323
6013.6065	 0.0322
6015.5352	 0.0322
6017.4639	 0.0321
6019.3925	 0.0321
6021.3212	 0.0320
6023.2499	 0.0320
6025.1786	 0.0319
6027.1072	 0.0319
6029.0359	 0.0318
6030.9646	 0.0318
6032.8933	 0.0318
6034.8219	 0.0317
6036.7506	 0.0317
6038.6793	 0.0316
6040.6080	 0.0316
6042.5366	 0.0315
6044.4653	 0.0315
6046.3940	 0.0314
6048.3227	 0.0314
6050.2513	 0.0313
6052.1800	 0.0313
6054.1087	 0.0313
6056.0374	 0.0312
6057.9660	 0.0312
6059.8947	 0.0311
6061.8234	 0.0311
6063.7521	 0.0310
6065.6807	 0.0310
6067.6094	 0.0309
6069.5381	 0.0309
6071.4667	 0.0308
6073.3954	 0.0308
6075.3241	 0.0307
6077.2528	 0.0307
6079.1814	 0.0307
6081.1101	 0.0306
6083.0388	 0.0306
6084.9675	 0.0305
6086.8961	 0.0305
6088.8248	 0.0304
6090.7535	 0.0304
6092.6822	 0.0303
6094.6108	 0.0303
6096.5395	 0.0303
6098.4682	 0.0302
6100.3969	 0.0302
6102.3255	 0.0301
6104.2542	 0.0301
6106.1829	 0.0300
6108.1116	 0.0300
6110.0402	 0.0299
6111.9689	 0.0299
6113.8976	 0.0298
6115.8263	 0.0298
6117.7549	 0.0298
6119.6836	 0.0297
6121.6123	 0.0297
6123.5410	 0.0296
6125.4696	 0.0296
6127.3983	 0.0296
6129.3270	 0.0295
6131.2557	 0.0295
6133.1843	 0.0294
6135.1130	 0.0294
6137.0417	 0.0293
6138.9703	 0.0293
6140.8990	 0.0292
6142.8277	 0.0292
6144.7564	 0.0291
6146.6850	 0.0291
6148.6137	 0.0290
6150.5424	 0.0290
6152.4711	 0.0290
6154.3997	 0.0289
6156.3284	 0.0289
6158.2571	 0.0288
6160.1858	 0.0288
6162.1144	 0.0288
6164.0431	 0.0287
6165.9718	 0.0287
6167.9005	 0.0286
6169.8291	 0.0286
6171.7578	 0.0285
6173.6865	 0.0285
6175.6152	 0.0285
6177.5438	 0.0284
6179.4725	 0.0284
6181.4012	 0.0283
6183.3299	 0.0283
6185.2585	 0.0283
6187.1872	 0.0282
6189.1159	 0.0282
6191.0446	 0.0281
6192.9732	 0.0281
6194.9019	 0.0280
6196.8306	 0.0280
6198.7593	 0.0279
6200.6879	 0.0279
6202.6166	 0.0279
6204.5453	 0.0278
6206.4740	 0.0278
6208.4026	 0.0277
6210.3313	 0.0277
6212.2600	 0.0276
6214.1886	 0.0276
6216.1173	 0.0276
6218.0460	 0.0275
6219.9747	 0.0275
6221.9033	 0.0274
6223.8320	 0.0274
6225.7607	 0.0274
6227.6894	 0.0273
6229.6180	 0.0273
6231.5467	 0.0272
6233.4754	 0.0272
6235.4041	 0.0272
6237.3327	 0.0271
6239.2614	 0.0270
6241.1901	 0.0270
6243.1188	 0.0270
6245.0474	 0.0269
6246.9761	 0.0269
6248.9048	 0.0268
6250.8335	 0.0268
6252.7621	 0.0268
6254.6908	 0.0267
6256.6195	 0.0267
6258.5482	 0.0266
6260.4768	 0.0266
6262.4055	 0.0266
6264.3342	 0.0265
6266.2629	 0.0265
6268.1915	 0.0264
6270.1202	 0.0264
6272.0489	 0.0264
6273.9776	 0.0263
6275.9062	 0.0263
6277.8349	 0.0263
6279.7636	 0.0262
6281.6922	 0.0262
6283.6209	 0.0261
6285.5496	 0.0261
6287.4783	 0.0260
6289.4069	 0.0260
6291.3356	 0.0260
6293.2643	 0.0259
6295.1930	 0.0259
6297.1216	 0.0258
6299.0503	 0.0258
6300.9790	 0.0257
6302.9077	 0.0257
6304.8363	 0.0257
6306.7650	 0.0256
6308.6937	 0.0256
6310.6224	 0.0256
6312.5510	 0.0255
6314.4797	 0.0255
6316.4084	 0.0254
6318.3371	 0.0254
6320.2657	 0.0254
6322.1944	 0.0253
6324.1231	 0.0253
6326.0518	 0.0252
6327.9804	 0.0252
6329.9091	 0.0252
6331.8378	 0.0251
6333.7665	 0.0251
6335.6951	 0.0251
6337.6238	 0.0250
6339.5525	 0.0250
6341.4812	 0.0249
6343.4098	 0.0249
6345.3385	 0.0249
6347.2672	 0.0248
6349.1958	 0.0248
6351.1245	 0.0247
6353.0532	 0.0247
6354.9819	 0.0247
6356.9105	 0.0246
6358.8392	 0.0246
6360.7679	 0.0245
6362.6966	 0.0245
6364.6252	 0.0245
6366.5539	 0.0244
6368.4826	 0.0244
6370.4113	 0.0243
6372.3399	 0.0243
6374.2686	 0.0243
6376.1973	 0.0242
6378.1260	 0.0242
6380.0546	 0.0242
6381.9833	 0.0241
6383.9120	 0.0241
6385.8407	 0.0241
6387.7693	 0.0240
6389.6980	 0.0239
6391.6267	 0.0239
6393.5554	 0.0239
6395.4840	 0.0238
6397.4127	 0.0238
6399.3414	 0.0238
6401.2701	 0.0237
6403.1987	 0.0237
6405.1274	 0.0237
6407.0561	 0.0236
6408.9848	 0.0236
6410.9134	 0.0235
6412.8421	 0.0235
6414.7708	 0.0235
6416.6995	 0.0234
6418.6281	 0.0234
6420.5568	 0.0233
6422.4855	 0.0233
6424.4141	 0.0233
6426.3428	 0.0232
6428.2715	 0.0232
6430.2002	 0.0232
6432.1288	 0.0231
6434.0575	 0.0231
6435.9862	 0.0230
6437.9149	 0.0230
6439.8435	 0.0230
6441.7722	 0.0229
6443.7009	 0.0229
6445.6296	 0.0229
6447.5582	 0.0228
6449.4869	 0.0228
6451.4156	 0.0228
6453.3443	 0.0227
6455.2729	 0.0227
6457.2016	 0.0227
6459.1303	 0.0226
6461.0590	 0.0226
6462.9876	 0.0225
6464.9163	 0.0225
6466.8450	 0.0225
6468.7737	 0.0224
6470.7023	 0.0224
6472.6310	 0.0224
6474.5597	 0.0223
6476.4884	 0.0223
6478.4170	 0.0222
6480.3457	 0.0222
6482.2744	 0.0222
6484.2031	 0.0221
6486.1317	 0.0221
6488.0604	 0.0221
6489.9891	 0.0220
6491.9177	 0.0220
6493.8464	 0.0220
6495.7751	 0.0219
6497.7038	 0.0219
6499.6324	 0.0218
6501.5611	 0.0218
6503.4898	 0.0218
6505.4185	 0.0217
6507.3471	 0.0217
6509.2758	 0.0217
6511.2045	 0.0216
6513.1332	 0.0216
6515.0618	 0.0216
6516.9905	 0.0215
6518.9192	 0.0215
6520.8479	 0.0215
6522.7765	 0.0214
6524.7052	 0.0214
6526.6339	 0.0213
6528.5626	 0.0213
6530.4912	 0.0213
6532.4199	 0.0212
6534.3486	 0.0212
6536.2773	 0.0212
6538.2059	 0.0211
6540.1346	 0.0211
6542.0633	 0.0211
6543.9920	 0.0210
6545.9206	 0.0210
6547.8493	 0.0210
6549.7780	 0.0209
6551.7067	 0.0209
6553.6353	 0.0209
6555.5640	 0.0208
6557.4927	 0.0208
6559.4214	 0.0208
6561.3500	 0.0207
6563.2787	 0.0207
6565.2074	 0.0206
6567.1360	 0.0206
6569.0647	 0.0206
6570.9934	 0.0205
6572.9221	 0.0205
6574.8507	 0.0205
6576.7794	 0.0205
6578.7081	 0.0204
6580.6368	 0.0204
6582.5654	 0.0203
6584.4941	 0.0203
6586.4228	 0.0203
6588.3515	 0.0202
6590.2801	 0.0202
6592.2088	 0.0202
6594.1375	 0.0201
6596.0662	 0.0201
6597.9948	 0.0201
6599.9235	 0.0200
6601.8522	 0.0200
6603.7809	 0.0200
6605.7095	 0.0199
6607.6382	 0.0199
6609.5669	 0.0199
6611.4956	 0.0198
6613.4242	 0.0198
6615.3529	 0.0198
6617.2816	 0.0197
6619.2103	 0.0197
6621.1389	 0.0197
6623.0676	 0.0196
6624.9963	 0.0196
6626.9250	 0.0196
6628.8536	 0.0195
6630.7823	 0.0195
6632.7110	 0.0195
6634.6396	 0.0194
6636.5683	 0.0194
6638.4970	 0.0194
6640.4257	 0.0193
6642.3543	 0.0193
6644.2830	 0.0193
6646.2117	 0.0193
6648.1404	 0.0192
6650.0690	 0.0192
6651.9977	 0.0191
6653.9264	 0.0191
6655.8551	 0.0191
6657.7837	 0.0190
6659.7124	 0.0190
6661.6411	 0.0190
6663.5698	 0.0189
6665.4984	 0.0189
6667.4271	 0.0189
6669.3558	 0.0188
6671.2845	 0.0188
6673.2131	 0.0188
6675.1418	 0.0188
6677.0705	 0.0187
6678.9992	 0.0187
6680.9278	 0.0187
6682.8565	 0.0186
6684.7852	 0.0186
6686.7139	 0.0186
6688.6425	 0.0185
6690.5712	 0.0185
6692.4999	 0.0184
6694.4286	 0.0184
6696.3572	 0.0184
6698.2859	 0.0184
6700.2146	 0.0183
6702.1432	 0.0183
6704.0719	 0.0183
6706.0006	 0.0182
6707.9293	 0.0182
6709.8579	 0.0182
6711.7866	 0.0181
6713.7153	 0.0181
6715.6440	 0.0181
6717.5726	 0.0181
6719.5013	 0.0180
6721.4300	 0.0180
6723.3587	 0.0180
6725.2873	 0.0179
6727.2160	 0.0179
6729.1447	 0.0179
6731.0734	 0.0178
6733.0020	 0.0178
6734.9307	 0.0178
6736.8594	 0.0177
6738.7881	 0.0177
6740.7167	 0.0177
6742.6454	 0.0176
6744.5741	 0.0176
6746.5028	 0.0176
6748.4314	 0.0175
6750.3601	 0.0175
6752.2888	 0.0175
6754.2175	 0.0174
6756.1461	 0.0174
6758.0748	 0.0174
6760.0035	 0.0174
6761.9322	 0.0173
6763.8608	 0.0173
6765.7895	 0.0172
6767.7182	 0.0172
6769.6469	 0.0172
6771.5755	 0.0172
6773.5042	 0.0172
6775.4329	 0.0171
6777.3615	 0.0171
6779.2902	 0.0171
6781.2189	 0.0171
6783.1476	 0.0170
6785.0762	 0.0170
6787.0049	 0.0169
6788.9336	 0.0169
6790.8623	 0.0169
6792.7909	 0.0168
6794.7196	 0.0168
6796.6483	 0.0168
6798.5770	 0.0167
6800.5056	 0.0167
6802.4343	 0.0167
6804.3630	 0.0166
6806.2917	 0.0166
6808.2203	 0.0166
6810.1490	 0.0166
6812.0777	 0.0166
6814.0064	 0.0166
6815.9350	 0.0165
6817.8637	 0.0165
6819.7924	 0.0164
6821.7211	 0.0164
6823.6497	 0.0164
6825.5784	 0.0163
6827.5071	 0.0163
6829.4358	 0.0163
6831.3644	 0.0163
6833.2931	 0.0162
6835.2218	 0.0162
6837.1505	 0.0162
6839.0791	 0.0162
6841.0078	 0.0161
6842.9365	 0.0161
6844.8651	 0.0161
6846.7938	 0.0160
6848.7225	 0.0160
6850.6512	 0.0160
6852.5798	 0.0160
6854.5085	 0.0159
6856.4372	 0.0159
6858.3659	 0.0159
6860.2945	 0.0158
6862.2232	 0.0158
6864.1519	 0.0158
6866.0806	 0.0158
6868.0092	 0.0157
6869.9379	 0.0157
6871.8666	 0.0156
6873.7953	 0.0156
6875.7239	 0.0156
6877.6526	 0.0156
6879.5813	 0.0156
6881.5100	 0.0155
6883.4386	 0.0155
6885.3673	 0.0154
6887.2960	 0.0154
6889.2247	 0.0154
6891.1533	 0.0153
6893.0820	 0.0153
6895.0107	 0.0153
6896.9394	 0.0153
6898.8680	 0.0153
6900.7967	 0.0153
6902.7254	 0.0152
6904.6541	 0.0152
6906.5827	 0.0152
6908.5114	 0.0152
6910.4401	 0.0151
6912.3688	 0.0151
6914.2974	 0.0150
6916.2261	 0.0149
6918.1548	 0.0149
6920.0834	 0.0150
6922.0121	 0.0150
6923.9408	 0.0149
6925.8695	 0.0149
6927.7981	 0.0149
6929.7268	 0.0148
6931.6555	 0.0148
6933.5842	 0.0148
6935.5128	 0.0147
6937.4415	 0.0147
6939.3702	 0.0147
6941.2989	 0.0147
6943.2275	 0.0147
6945.1562	 0.0146
6947.0849	 0.0146
6949.0136	 0.0146
6950.9422	 0.0146
6952.8709	 0.0145
6954.7996	 0.0144
6956.7283	 0.0144
6958.6569	 0.0144
6960.5856	 0.0144
6962.5143	 0.0144
6964.4430	 0.0144
6966.3716	 0.0143
6968.3003	 0.0143
6970.2290	 0.0142
6972.1577	 0.0142
6974.0863	 0.0142
6976.0150	 0.0142
6977.9437	 0.0142
6979.8724	 0.0141
6981.8010	 0.0141
6983.7297	 0.0140
6985.6584	 0.0140
6987.5870	 0.0140
6989.5157	 0.0140
6991.4444	 0.0140
6993.3731	 0.0140
6995.3017	 0.0140
6997.2304	 0.0139
6999.1591	 0.0139
7001.0878	 0.0138
7003.0164	 0.0138
7004.9451	 0.0138
7006.8738	 0.0138
7008.8025	 0.0138
7010.7311	 0.0138
7012.6598	 0.0137
7014.5885	 0.0137
7016.5172	 0.0137
7018.4458	 0.0137
7020.3745	 0.0136
7022.3032	 0.0135
7024.2319	 0.0135
7026.1605	 0.0135
7028.0892	 0.0135
7030.0179	 0.0135
7031.9466	 0.0135
7033.8752	 0.0135
7035.8039	 0.0134
7037.7326	 0.0134
7039.6613	 0.0134
7041.5899	 0.0133
7043.5186	 0.0132
7045.4473	 0.0132
7047.3760	 0.0131
7049.3046	 0.0132
7051.2333	 0.0132
7053.1620	 0.0132
7055.0906	 0.0131
7057.0193	 0.0131
7058.9480	 0.0131
7060.8767	 0.0131
7062.8053	 0.0131
7064.7340	 0.0130
7066.6627	 0.0129
7068.5914	 0.0128
7070.5200	 0.0127
7072.4487	 0.0128
7074.3774	 0.0129
7076.3061	 0.0129
7078.2347	 0.0129
7080.1634	 0.0128
7082.0921	 0.0128
7084.0208	 0.0128
7085.9494	 0.0128
7087.8781	 0.0128
7089.8068	 0.0127
7091.7355	 0.0126
7093.6641	 0.0124
7095.5928	 0.0123
7097.5215	 0.0125
7099.4502	 0.0126
7101.3788	 0.0126
7103.3075	 0.0125
7105.2362	 0.0123
7107.1649	 0.0123
7109.0935	 0.0124
7111.0222	 0.0125
7112.9509	 0.0125
7114.8796	 0.0122
7116.8082	 0.0119
7118.7369	 0.0119
7120.6656	 0.0122
7122.5943	 0.0123
7124.5229	 0.0123
7126.4516	 0.0123
7128.3803	 0.0123
7130.3089	 0.0123
7132.2376	 0.0122
7134.1663	 0.0121
7136.0950	 0.0119
7138.0236	 0.0117
7139.9523	 0.0117
7141.8810	 0.0118
7143.8097	 0.0118
7145.7383	 0.0118
7147.6670	 0.0120
7149.5957	 0.0121
7151.5244	 0.0120
7153.4530	 0.0120
7155.3817	 0.0120
7157.3104	 0.0119
7159.2391	 0.0116
7161.1677	 0.0114
7163.0964	 0.0115
7165.0251	 0.0116
7166.9538	 0.0114
7168.8824	 0.0114
7170.8111	 0.0116
7172.7398	 0.0118
7174.6685	 0.0118
7176.5971	 0.0117
7178.5258	 0.0116
7180.4545	 0.0112
7182.3832	 0.0112
7184.3118	 0.0115
7186.2405	 0.0116
7188.1692	 0.0116
7190.0979	 0.0116
7192.0265	 0.0115
7193.9552	 0.0115
7195.8839	 0.0114
7197.8125	 0.0115
7199.7412	 0.0114
7201.6699	 0.0112
7203.5986	 0.0110
7205.5272	 0.0110
7207.4559	 0.0113
7209.3846	 0.0114
7211.3133	 0.0113
7213.2419	 0.0112
7215.1706	 0.0112
7217.0993	 0.0111
7219.0280	 0.0109
7220.9566	 0.0109
7222.8853	 0.0111
7224.8140	 0.0110
7226.7427	 0.0109
7228.6713	 0.0109
7230.6000	 0.0104
7232.5287	 0.0102
7234.4574	 0.0106
7236.3860	 0.0110
7238.3147	 0.0110
7240.2434	 0.0106
7242.1721	 0.0102
7244.1007	 0.0103
7246.0294	 0.0108
7247.9581	 0.0110
7249.8868	 0.0109
7251.8154	 0.0107
7253.7441	 0.0107
7255.6728	 0.0108
7257.6015	 0.0109
7259.5301	 0.0108
7261.4588	 0.0106
7263.3875	 0.0106
7265.3161	 0.0107
7267.2448	 0.0107
7269.1735	 0.0107
7271.1022	 0.0107
7273.0308	 0.0106
7274.9595	 0.0106
7276.8882	 0.0106
7278.8169	 0.0106
7280.7455	 0.0106
7282.6742	 0.0106
7284.6029	 0.0105
7286.5316	 0.0104
7288.4602	 0.0103
7290.3889	 0.0104
7292.3176	 0.0102
7294.2463	 0.0100
7296.1749	 0.0102
7298.1036	 0.0102
7300.0323	 0.0102
7301.9610	 0.0103
7303.8896	 0.0102
7305.8183	 0.0099
7307.7470	 0.0099
7309.6757	 0.0099
7311.6043	 0.0099
7313.5330	 0.0100
7315.4617	 0.0101
7317.3904	 0.0102
7319.3190	 0.0102
7321.2477	 0.0101
7323.1764	 0.0099
7325.1051	 0.0098
7327.0337	 0.0095
7328.9624	 0.0096
7330.8911	 0.0099
7332.8198	 0.0100
7334.7484	 0.0101
7336.6771	 0.0099
7338.6058	 0.0095
7340.5344	 0.0092
7342.4631	 0.0094
7344.3918	 0.0095
7346.3205	 0.0096
7348.2491	 0.0096
7350.1778	 0.0098
7352.1065	 0.0098
7354.0352	 0.0096
7355.9638	 0.0095
7357.8925	 0.0097
7359.8212	 0.0097
7361.7499	 0.0096
7363.6785	 0.0097
7365.6072	 0.0096
7367.5359	 0.0095
7369.4646	 0.0095
7371.3932	 0.0097
7373.3219	 0.0096
7375.2506	 0.0094
7377.1793	 0.0094
7379.1079	 0.0095
7381.0366	 0.0094
7382.9653	 0.0094
7384.8940	 0.0095
7386.8226	 0.0095
7388.7513	 0.0095
7390.6800	 0.0095
7392.6087	 0.0094
7394.5373	 0.0094
7396.4660	 0.0094
7398.3947	 0.0094
7400.3234	 0.0094
7402.2520	 0.0094
7404.1807	 0.0094
7406.1094	 0.0094
7408.0380	 0.0094
7409.9667	 0.0094
7411.8954	 0.0094
7413.8241	 0.0093
7415.7527	 0.0093
7417.6814	 0.0093
7419.6101	 0.0092
7421.5388	 0.0093
7423.4674	 0.0093
7425.3961	 0.0093
7427.3248	 0.0092
7429.2535	 0.0092
7431.1821	 0.0092
7433.1108	 0.0092
7435.0395	 0.0092
7436.9682	 0.0092
7438.8968	 0.0091
7440.8255	 0.0091
7442.7542	 0.0091
7444.6829	 0.0091
7446.6115	 0.0091
7448.5402	 0.0091
7450.4689	 0.0091
7452.3976	 0.0090
7454.3262	 0.0090
7456.2549	 0.0090
7458.1836	 0.0090
7460.1123	 0.0090
7462.0409	 0.0090
7463.9696	 0.0089
7465.8983	 0.0089
7467.8270	 0.0089
7469.7556	 0.0089
7471.6843	 0.0089
7473.6130	 0.0089
7475.5417	 0.0088
7477.4703	 0.0088
7479.3990	 0.0088
7481.3277	 0.0088
7483.2563	 0.0088
7485.1850	 0.0088
7487.1137	 0.0087
7489.0424	 0.0087
7490.9710	 0.0087
7492.8997	 0.0087
7494.8284	 0.0087
7496.7571	 0.0087
7498.6857	 0.0087
7500.6144	 0.0086
7502.5431	 0.0086
7504.4718	 0.0086
7506.4004	 0.0086
7508.3291	 0.0086
7510.2578	 0.0086
7512.1865	 0.0086
7514.1151	 0.0085
7516.0438	 0.0085
7517.9725	 0.0085
7519.9012	 0.0085
7521.8298	 0.0085
7523.7585	 0.0085
7525.6872	 0.0084
7527.6159	 0.0084
7529.5445	 0.0084
7531.4732	 0.0084
7533.4019	 0.0084
7535.3306	 0.0084
7537.2592	 0.0083
7539.1879	 0.0083
7541.1166	 0.0083
7543.0453	 0.0083
7544.9739	 0.0083
7546.9026	 0.0083
7548.8313	 0.0083
7550.7599	 0.0082
7552.6886	 0.0082
7554.6173	 0.0082
7556.5460	 0.0082
7558.4746	 0.0082
7560.4033	 0.0082
7562.3320	 0.0081
7564.2607	 0.0081
7566.1893	 0.0081
7568.1180	 0.0081
7570.0467	 0.0081
7571.9754	 0.0081
7573.9040	 0.0081
7575.8327	 0.0080
7577.7614	 0.0080
7579.6901	 0.0080
7581.6187	 0.0080
7583.5474	 0.0080
7585.4761	 0.0080
7587.4048	 0.0079
7589.3334	 0.0079
7591.2621	 0.0079
7593.1908	 0.0079
7595.1195	 0.0079
7597.0481	 0.0079
7598.9768	 0.0079
7600.9055	 0.0078
7602.8342	 0.0078
7604.7628	 0.0078
7606.6915	 0.0078
7608.6202	 0.0078
7610.5489	 0.0078
7612.4775	 0.0078
7614.4062	 0.0078
7616.3349	 0.0077
7618.2635	 0.0077
7620.1922	 0.0077
7622.1209	 0.0077
7624.0496	 0.0077
7625.9782	 0.0077
7627.9069	 0.0076
7629.8356	 0.0076
7631.7643	 0.0076
7633.6929	 0.0076
7635.6216	 0.0076
7637.5503	 0.0076
7639.4790	 0.0076
7641.4076	 0.0076
7643.3363	 0.0075
7645.2650	 0.0075
7647.1937	 0.0075
7649.1223	 0.0075
7651.0510	 0.0075
7652.9797	 0.0075
7654.9084	 0.0075
7656.8370	 0.0075
7658.7657	 0.0074
7660.6944	 0.0074
7662.6231	 0.0074
7664.5517	 0.0074
7666.4804	 0.0074
7668.4091	 0.0074
7670.3378	 0.0074
7672.2664	 0.0073
7674.1951	 0.0073
7676.1238	 0.0073
7678.0525	 0.0073
7679.9811	 0.0073
7681.9098	 0.0073
7683.8385	 0.0073
7685.7672	 0.0073
7687.6958	 0.0072
7689.6245	 0.0072
7691.5532	 0.0072
7693.4818	 0.0072
7695.4105	 0.0072
7697.3392	 0.0072
7699.2679	 0.0072
7701.1965	 0.0072
7703.1252	 0.0071
7705.0539	 0.0071
7706.9826	 0.0071
7708.9112	 0.0071
7710.8399	 0.0071
7712.7686	 0.0071
7714.6973	 0.0071
7716.6259	 0.0070
7718.5546	 0.0070
7720.4833	 0.0070
7722.4120	 0.0070
7724.3406	 0.0070
7726.2693	 0.0070
7728.1980	 0.0070
7730.1267	 0.0070
7732.0553	 0.0070
7733.9840	 0.0069
7735.9127	 0.0069
7737.8414	 0.0069
7739.7700	 0.0069
7741.6987	 0.0069
7743.6274	 0.0069
7745.5561	 0.0069
7747.4847	 0.0069
7749.4134	 0.0068
7751.3421	 0.0068
7753.2708	 0.0068
7755.1994	 0.0068
7757.1281	 0.0068
7759.0568	 0.0068
7760.9854	 0.0068
7762.9141	 0.0068
7764.8428	 0.0067
7766.7715	 0.0067
7768.7001	 0.0067
7770.6288	 0.0067
7772.5575	 0.0067
7774.4862	 0.0067
7776.4148	 0.0067
7778.3435	 0.0067
7780.2722	 0.0066
7782.2009	 0.0066
7784.1295	 0.0066
7786.0582	 0.0066
7787.9869	 0.0066
7789.9156	 0.0066
7791.8442	 0.0066
7793.7729	 0.0066
7795.7016	 0.0066
7797.6303	 0.0065
7799.5589	 0.0065
7801.4876	 0.0065
7803.4163	 0.0065
7805.3450	 0.0065
7807.2736	 0.0065
7809.2023	 0.0065
7811.1310	 0.0064
7813.0597	 0.0064
7814.9883	 0.0064
7816.9170	 0.0064
7818.8457	 0.0064
7820.7744	 0.0064
7822.7030	 0.0064
7824.6317	 0.0064
7826.5604	 0.0064
7828.4891	 0.0063
7830.4177	 0.0063
7832.3464	 0.0063
7834.2751	 0.0063
7836.2037	 0.0063
7838.1324	 0.0063
7840.0611	 0.0063
7841.9898	 0.0063
7843.9184	 0.0063
7845.8471	 0.0062
7847.7758	 0.0062
7849.7045	 0.0062
7851.6331	 0.0062
7853.5618	 0.0062
7855.4905	 0.0062
7857.4192	 0.0062
7859.3478	 0.0062
7861.2765	 0.0061
7863.2052	 0.0061
7865.1339	 0.0061
7867.0625	 0.0061
7868.9912	 0.0061
7870.9199	 0.0061
7872.8486	 0.0061
7874.7772	 0.0061
7876.7059	 0.0061
7878.6346	 0.0060
7880.5633	 0.0060
7882.4919	 0.0060
7884.4206	 0.0060
7886.3493	 0.0060
7888.2780	 0.0060
7890.2066	 0.0060
7892.1353	 0.0060
7894.0640	 0.0060
7895.9927	 0.0060
7897.9213	 0.0060
7899.8500	 0.0060
7901.7787	 0.0059
7903.7073	 0.0059
7905.6360	 0.0059
7907.5647	 0.0059
7909.4934	 0.0059
7911.4220	 0.0059
7913.3507	 0.0059
7915.2794	 0.0058
7917.2081	 0.0058
7919.1367	 0.0058
7921.0654	 0.0058
7922.9941	 0.0058
7924.9228	 0.0058
7926.8514	 0.0058
7928.7801	 0.0058
7930.7088	 0.0058
7932.6375	 0.0058
7934.5661	 0.0058
7936.4948	 0.0057
7938.4235	 0.0057
7940.3522	 0.0057
7942.2808	 0.0057
7944.2095	 0.0057
7946.1382	 0.0057
7948.0669	 0.0057
7949.9955	 0.0057
7951.9242	 0.0057
7953.8529	 0.0056
7955.7816	 0.0056
7957.7102	 0.0056
7959.6389	 0.0056
7961.5676	 0.0056
7963.4963	 0.0056
7965.4249	 0.0056
7967.3536	 0.0056
7969.2823	 0.0056
7971.2109	 0.0056
7973.1396	 0.0056
7975.0683	 0.0056
7976.9970	 0.0055
7978.9256	 0.0055
7980.8543	 0.0055
7982.7830	 0.0055
7984.7117	 0.0055
7986.6403	 0.0055
7988.5690	 0.0055
7990.4977	 0.0055
7992.4264	 0.0054
7994.3550	 0.0054
7996.2837	 0.0054
7998.2124	 0.0054
8000.1411	 0.0054
8002.0697	 0.0054
8003.9984	 0.0054
8005.9271	 0.0054
8007.8558	 0.0054
8009.7844	 0.0053
8011.7131	 0.0053
8013.6418	 0.0053
8015.5705	 0.0053
8017.4991	 0.0053
8019.4278	 0.0053
8021.3565	 0.0053
8023.2852	 0.0053
8025.2138	 0.0053
8027.1425	 0.0053
8029.0712	 0.0053
8030.9999	 0.0053
8032.9285	 0.0053
8034.8572	 0.0052
8036.7859	 0.0052
8038.7146	 0.0052
8040.6432	 0.0052
8042.5719	 0.0052
8044.5006	 0.0052
8046.4292	 0.0052
8048.3579	 0.0052
8050.2866	 0.0052
8052.2153	 0.0052
8054.1439	 0.0051
8056.0726	 0.0051
8058.0013	 0.0051
8059.9300	 0.0051
8061.8586	 0.0051
8063.7873	 0.0051
8065.7160	 0.0051
8067.6447	 0.0051
8069.5733	 0.0051
8071.5020	 0.0051
8073.4307	 0.0051
8075.3594	 0.0050
8077.2880	 0.0050
8079.2167	 0.0050
8081.1454	 0.0050
8083.0741	 0.0050
8085.0027	 0.0050
8086.9314	 0.0050
8088.8601	 0.0050
8090.7888	 0.0050
8092.7174	 0.0050
8094.6461	 0.0050
8096.5748	 0.0050
8098.5035	 0.0049
8100.4321	 0.0049
8102.3608	 0.0049
8104.2895	 0.0049
8106.2182	 0.0049
8108.1468	 0.0049
8110.0755	 0.0049
8112.0042	 0.0049
8113.9328	 0.0049
8115.8615	 0.0049
8117.7902	 0.0049
8119.7189	 0.0048
8121.6475	 0.0048
8123.5762	 0.0048
8125.5049	 0.0048
8127.4336	 0.0048
8129.3622	 0.0048
8131.2909	 0.0048
8133.2196	 0.0048
8135.1483	 0.0048
8137.0769	 0.0048
8139.0056	 0.0048
8140.9343	 0.0047
8142.8630	 0.0047
8144.7916	 0.0047
8146.7203	 0.0047
8148.6490	 0.0047
8150.5777	 0.0047
8152.5063	 0.0047
8154.4350	 0.0047
8156.3637	 0.0047
8158.2924	 0.0047
8160.2210	 0.0047
8162.1497	 0.0047
8164.0784	 0.0046
8166.0071	 0.0046
8167.9357	 0.0046
8169.8644	 0.0046
8171.7931	 0.0046
8173.7218	 0.0046
8175.6504	 0.0046
8177.5791	 0.0046
8179.5078	 0.0046
8181.4365	 0.0046
8183.3651	 0.0046
8185.2938	 0.0046
8187.2225	 0.0046
8189.1511	 0.0045
8191.0798	 0.0045
8193.0085	 0.0045
8194.9372	 0.0045
8196.8658	 0.0045
8198.7945	 0.0045
8200.7232	 0.0045
8202.6519	 0.0045
8204.5805	 0.0045
8206.5092	 0.0045
8208.4379	 0.0045
8210.3666	 0.0045
8212.2952	 0.0045
8214.2239	 0.0045
8216.1526	 0.0045
8218.0813	 0.0045
8220.0099	 0.0044
8221.9386	 0.0044
8223.8673	 0.0044
8225.7960	 0.0044
8227.7246	 0.0044
8229.6533	 0.0044
8231.5820	 0.0044
8233.5107	 0.0044
8235.4393	 0.0044
8237.3680	 0.0044
8239.2967	 0.0044
8241.2254	 0.0043
8243.1540	 0.0043
8245.0827	 0.0043
8247.0114	 0.0043
8248.9401	 0.0043
8250.8687	 0.0043
8252.7974	 0.0043
8254.7261	 0.0043
8256.6547	 0.0043
8258.5834	 0.0043
8260.5121	 0.0042
8262.4408	 0.0042
8264.3694	 0.0042
8266.2981	 0.0042
8268.2268	 0.0042
8270.1555	 0.0042
8272.0841	 0.0042
8274.0128	 0.0042
8275.9415	 0.0042
8277.8702	 0.0042
8279.7988	 0.0042
8281.7275	 0.0042
8283.6562	 0.0042
8285.5849	 0.0041
8287.5135	 0.0041
8289.4422	 0.0041
8291.3709	 0.0041
8293.2996	 0.0041
8295.2282	 0.0041
8297.1569	 0.0041
8299.0856	 0.0041
8301.0143	 0.0041
8302.9429	 0.0041
8304.8716	 0.0041
8306.8003	 0.0041
8308.7290	 0.0041
8310.6576	 0.0040
8312.5863	 0.0040
8314.5150	 0.0040
8316.4437	 0.0040
8318.3723	 0.0040
8320.3010	 0.0040
8322.2297	 0.0040
8324.1583	 0.0040
8326.0870	 0.0040
8328.0157	 0.0040
8329.9444	 0.0040
8331.8730	 0.0040
8333.8017	 0.0040
8335.7304	 0.0040
8337.6591	 0.0039
8339.5877	 0.0039
8341.5164	 0.0039
8343.4451	 0.0039
8345.3738	 0.0039
8347.3024	 0.0039
8349.2311	 0.0039
8351.1598	 0.0039
8353.0885	 0.0039
8355.0171	 0.0039
8356.9458	 0.0039
8358.8745	 0.0039
8360.8032	 0.0039
8362.7318	 0.0038
8364.6605	 0.0038
8366.5892	 0.0038
8368.5179	 0.0038
8370.4465	 0.0038
8372.3752	 0.0038
8374.3039	 0.0038
8376.2326	 0.0038
8378.1612	 0.0038
8380.0899	 0.0038
8382.0186	 0.0038
8383.9473	 0.0038
8385.8759	 0.0038
8387.8046	 0.0038
8389.7333	 0.0038
8391.6620	 0.0038
8393.5906	 0.0038
8395.5193	 0.0037
8397.4480	 0.0037
8399.3766	 0.0037
8401.3053	 0.0037
8403.2340	 0.0037
8405.1627	 0.0037
8407.0913	 0.0037
8409.0200	 0.0037
8410.9487	 0.0037
8412.8774	 0.0037
8414.8060	 0.0037
8416.7347	 0.0037
8418.6634	 0.0036
8420.5921	 0.0036
8422.5207	 0.0036
8424.4494	 0.0036
8426.3781	 0.0036
8428.3068	 0.0036
8430.2354	 0.0036
8432.1641	 0.0036
8434.0928	 0.0036
8436.0215	 0.0036
8437.9501	 0.0036
8439.8788	 0.0036
8441.8075	 0.0036
8443.7362	 0.0036
8445.6648	 0.0036
8447.5935	 0.0035
8449.5222	 0.0035
8451.4509	 0.0035
8453.3795	 0.0035
8455.3082	 0.0035
8457.2369	 0.0035
8459.1656	 0.0035
8461.0942	 0.0035
8463.0229	 0.0035
8464.9516	 0.0035
8466.8802	 0.0035
8468.8089	 0.0035
8470.7376	 0.0035
8472.6663	 0.0035
8474.5949	 0.0034
8476.5236	 0.0034
8478.4523	 0.0034
8480.3810	 0.0034
8482.3096	 0.0034
8484.2383	 0.0034
8486.1670	 0.0034
8488.0957	 0.0034
8490.0243	 0.0034
8491.9530	 0.0034
8493.8817	 0.0034
8495.8104	 0.0034
8497.7390	 0.0034
8499.6677	 0.0034
8501.5964	 0.0034
8503.5251	 0.0034
8505.4537	 0.0034
8507.3824	 0.0033
8509.3111	 0.0033
8511.2398	 0.0033
8513.1684	 0.0033
8515.0971	 0.0033
8517.0258	 0.0033
8518.9545	 0.0033
8520.8831	 0.0033
8522.8118	 0.0033
8524.7405	 0.0033
8526.6692	 0.0033
8528.5978	 0.0033
8530.5265	 0.0033
8532.4552	 0.0033
8534.3839	 0.0033
8536.3125	 0.0033
8538.2412	 0.0032
8540.1699	 0.0032
8542.0985	 0.0032
8544.0272	 0.0032
8545.9559	 0.0032
8547.8846	 0.0032
8549.8132	 0.0032
8551.7419	 0.0032
8553.6706	 0.0032
8555.5993	 0.0032
8557.5279	 0.0032
8559.4566	 0.0032
8561.3853	 0.0032
8563.3140	 0.0032
8565.2426	 0.0032
8567.1713	 0.0032
8569.1000	 0.0032
8571.0287	 0.0031
8572.9573	 0.0031
8574.8860	 0.0031
8576.8147	 0.0031
8578.7434	 0.0031
8580.6720	 0.0031
8582.6007	 0.0031
8584.5294	 0.0031
8586.4581	 0.0031
8588.3867	 0.0031
8590.3154	 0.0031
8592.2441	 0.0031
8594.1728	 0.0031
8596.1014	 0.0031
8598.0301	 0.0031
8599.9588	 0.0031
8601.8875	 0.0030
8603.8161	 0.0030
8605.7448	 0.0030
8607.6735	 0.0030
8609.6021	 0.0030
8611.5308	 0.0030
8613.4595	 0.0030
8615.3882	 0.0030
8617.3168	 0.0030
8619.2455	 0.0030
8621.1742	 0.0030
8623.1029	 0.0030
8625.0315	 0.0030
8626.9602	 0.0030
8628.8889	 0.0030
8630.8176	 0.0029
8632.7462	 0.0029
8634.6749	 0.0029
8636.6036	 0.0029
8638.5323	 0.0029
8640.4609	 0.0029
8642.3896	 0.0029
8644.3183	 0.0029
8646.2470	 0.0029
8648.1756	 0.0029
8650.1043	 0.0029
8652.0330	 0.0029
8653.9617	 0.0029
8655.8903	 0.0029
8657.8190	 0.0029
8659.7477	 0.0029
8661.6764	 0.0029
8663.6050	 0.0029
8665.5337	 0.0029
8667.4624	 0.0029
8669.3911	 0.0029
8671.3197	 0.0029
8673.2484	 0.0028
8675.1771	 0.0028
8677.1057	 0.0028
8679.0344	 0.0028
8680.9631	 0.0028
8682.8918	 0.0028
8684.8204	 0.0028
8686.7491	 0.0028
8688.6778	 0.0028
8690.6065	 0.0028
8692.5351	 0.0028
8694.4638	 0.0027
8696.3925	 0.0027
8698.3212	 0.0027
8700.2498	 0.0027
8702.1785	 0.0027
8704.1072	 0.0027
8706.0359	 0.0027
8707.9645	 0.0027
8709.8932	 0.0027
8711.8219	 0.0027
8713.7506	 0.0027
8715.6792	 0.0027
8717.6079	 0.0027
8719.5366	 0.0027
8721.4653	 0.0027
8723.3939	 0.0027
8725.3226	 0.0027
8727.2513	 0.0027
8729.1800	 0.0027
8731.1086	 0.0027
8733.0373	 0.0027
8734.9660	 0.0027
8736.8947	 0.0027
8738.8233	 0.0026
8740.7520	 0.0027
8742.6807	 0.0026
8744.6094	 0.0026
8746.5380	 0.0026
8748.4667	 0.0026
8750.3954	 0.0026
8752.3240	 0.0026
8754.2527	 0.0026
8756.1814	 0.0026
8758.1101	 0.0026
8760.0387	 0.0026
8761.9674	 0.0026
8763.8961	 0.0026
8765.8248	 0.0026
8767.7534	 0.0026
8769.6821	 0.0026
8771.6108	 0.0026
8773.5395	 0.0025
8775.4681	 0.0025
8777.3968	 0.0025
8779.3255	 0.0025
8781.2542	 0.0025
8783.1828	 0.0025
8785.1115	 0.0025
8787.0402	 0.0025
8788.9689	 0.0025
8790.8975	 0.0025
8792.8262	 0.0025
8794.7549	 0.0025
8796.6836	 0.0025
8798.6122	 0.0025
8800.5409	 0.0025
8802.4696	 0.0025
8804.3983	 0.0025
8806.3269	 0.0025
8808.2556	 0.0025
8810.1843	 0.0024
8812.1130	 0.0024
8814.0416	 0.0024
8815.9703	 0.0024
8817.8990	 0.0024
8819.8276	 0.0024
8821.7563	 0.0024
8823.6850	 0.0024
8825.6137	 0.0024
8827.5423	 0.0024
8829.4710	 0.0024
8831.3997	 0.0024
8833.3284	 0.0024
8835.2570	 0.0024
8837.1857	 0.0024
8839.1144	 0.0024
8841.0431	 0.0024
8842.9717	 0.0024
8844.9004	 0.0024
8846.8291	 0.0024
8848.7578	 0.0024
8850.6864	 0.0023
8852.6151	 0.0023
8854.5438	 0.0023
8856.4725	 0.0023
8858.4011	 0.0023
8860.3298	 0.0023
8862.2585	 0.0023
8864.1872	 0.0023
8866.1158	 0.0023
8868.0445	 0.0023
8869.9732	 0.0023
8871.9019	 0.0023
8873.8305	 0.0023
8875.7592	 0.0023
8877.6879	 0.0023
8879.6166	 0.0023
8881.5452	 0.0023
8883.4739	 0.0023
8885.4026	 0.0022
8887.3313	 0.0022
8889.2599	 0.0022
8891.1886	 0.0022
8893.1173	 0.0022
8895.0459	 0.0022
8896.9746	 0.0022
8898.9033	 0.0022
8900.8320	 0.0022
8902.7606	 0.0022
8904.6893	 0.0022
8906.6180	 0.0022
8908.5467	 0.0022
8910.4753	 0.0022
8912.4040	 0.0022
8914.3327	 0.0022
8916.2614	 0.0022
8918.1900	 0.0022
8920.1187	 0.0022
8922.0474	 0.0022
8923.9761	 0.0022
8925.9047	 0.0022
8927.8334	 0.0022
8929.7621	 0.0021
8931.6908	 0.0021
8933.6194	 0.0021
8935.5481	 0.0021
8937.4768	 0.0021
8939.4055	 0.0021
8941.3341	 0.0021
8943.2628	 0.0021
8945.1915	 0.0021
8947.1202	 0.0021
8949.0488	 0.0021
8950.9775	 0.0021
8952.9062	 0.0021
8954.8349	 0.0021
8956.7635	 0.0021
8958.6922	 0.0021
8960.6209	 0.0021
8962.5495	 0.0021
8964.4782	 0.0021
8966.4069	 0.0021
8968.3356	 0.0021
8970.2642	 0.0021
8972.1929	 0.0021
8974.1216	 0.0021
8976.0503	 0.0020
8977.9789	 0.0020
8979.9076	 0.0020
8981.8363	 0.0020
8983.7650	 0.0020
8985.6936	 0.0020
8987.6223	 0.0020
8989.5510	 0.0020
8991.4797	 0.0020
8993.4083	 0.0020
8995.3370	 0.0020
8997.2657	 0.0020
8999.1944	 0.0020
9001.1230	 0.0020
9003.0517	 0.0020
9004.9804	 0.0020
9006.9091	 0.0020
9008.8377	 0.0020
9010.7664	 0.0020
9012.6951	 0.0020
9014.6238	 0.0020
9016.5524	 0.0020
9018.4811	 0.0019
9020.4098	 0.0019
9022.3385	 0.0019
9024.2671	 0.0019
9026.1958	 0.0019
9028.1245	 0.0019
9030.0531	 0.0019
9031.9818	 0.0019
9033.9105	 0.0019
9035.8392	 0.0019
9037.7678	 0.0019
9039.6965	 0.0019
9041.6252	 0.0019
9043.5539	 0.0019
9045.4825	 0.0019
9047.4112	 0.0019
9049.3399	 0.0019
9051.2686	 0.0019
9053.1972	 0.0019
9055.1259	 0.0019
9057.0546	 0.0019
9058.9833	 0.0019
9060.9119	 0.0019
9062.8406	 0.0019
9064.7693	 0.0019
9066.6980	 0.0018
9068.6266	 0.0018
9070.5553	 0.0018
9072.4840	 0.0018
9074.4127	 0.0018
9076.3413	 0.0018
9078.2700	 0.0018
9080.1987	 0.0018
9082.1274	 0.0018
9084.0560	 0.0018
9085.9847	 0.0018
9087.9134	 0.0018
9089.8421	 0.0018
9091.7707	 0.0018
9093.6994	 0.0018
9095.6281	 0.0018
9097.5568	 0.0018
9099.4854	 0.0018
9101.4141	 0.0018
9103.3428	 0.0018
9105.2714	 0.0018
9107.2001	 0.0018
9109.1288	 0.0017
9111.0575	 0.0017
9112.9861	 0.0018
9114.9148	 0.0017
9116.8435	 0.0017
9118.7722	 0.0017
9120.7008	 0.0017
9122.6295	 0.0017
9124.5582	 0.0017
9126.4869	 0.0017
9128.4155	 0.0017
9130.3442	 0.0017
9132.2729	 0.0017
9134.2016	 0.0017
9136.1302	 0.0017
9138.0589	 0.0017
9139.9876	 0.0017
9141.9163	 0.0017
9143.8449	 0.0017
9145.7736	 0.0017
9147.7023	 0.0017
9149.6310	 0.0017
9151.5596	 0.0017
9153.4883	 0.0017
9155.4170	 0.0016
9157.3457	 0.0017
9159.2743	 0.0016
9161.2030	 0.0016
9163.1317	 0.0016
9165.0604	 0.0016
9166.9890	 0.0016
9168.9177	 0.0016
9170.8464	 0.0016
9172.7750	 0.0016
9174.7037	 0.0016
9176.6324	 0.0016
9178.5611	 0.0016
9180.4897	 0.0016
9182.4184	 0.0016
9184.3471	 0.0016
9186.2758	 0.0016
9188.2044	 0.0016
9190.1331	 0.0016
9192.0618	 0.0016
9193.9905	 0.0016
9195.9191	 0.0016
9197.8478	 0.0016
9199.7765	 0.0016
9201.7052	 0.0016
9203.6338	 0.0016
9205.5625	 0.0015
9207.4912	 0.0016
9209.4199	 0.0015
9211.3485	 0.0015
9213.2772	 0.0015
9215.2059	 0.0016
9217.1346	 0.0016
9219.0632	 0.0015
9220.9919	 0.0015
9222.9206	 0.0015
9224.8493	 0.0015
9226.7779	 0.0015
9228.7066	 0.0015
9230.6353	 0.0015
9232.5640	 0.0015
9234.4926	 0.0015
9236.4213	 0.0015
9238.3500	 0.0015
9240.2786	 0.0015
9242.2073	 0.0015
9244.1360	 0.0015
9246.0647	 0.0015
9247.9933	 0.0015
9249.9220	 0.0015
9251.8507	 0.0015
9253.7794	 0.0015
9255.7080	 0.0015
9257.6367	 0.0015
9259.5654	 0.0015
9261.4941	 0.0015
9263.4227	 0.0015
9265.3514	 0.0014
9267.2801	 0.0014
9269.2088	 0.0014
9271.1374	 0.0014
9273.0661	 0.0014
9274.9948	 0.0014
9276.9235	 0.0014
9278.8521	 0.0014
9280.7808	 0.0014
9282.7095	 0.0014
9284.6382	 0.0014
9286.5668	 0.0014
9288.4955	 0.0014
9290.4242	 0.0014
9292.3529	 0.0014
9294.2815	 0.0014
9296.2102	 0.0014
9298.1389	 0.0014
9300.0676	 0.0014
9301.9962	 0.0014
9303.9249	 0.0014
9305.8536	 0.0014
9307.7823	 0.0014
9309.7109	 0.0014
9311.6396	 0.0014
9313.5683	 0.0014
9315.4969	 0.0014
9317.4256	 0.0013
9319.3543	 0.0013
9321.2830	 0.0013
9323.2116	 0.0014
9325.1403	 0.0013
9327.0690	 0.0013
9328.9977	 0.0013
9330.9263	 0.0013
9332.8550	 0.0013
9334.7837	 0.0013
9336.7124	 0.0013
9338.6410	 0.0013
9340.5697	 0.0013
9342.4984	 0.0013
9344.4271	 0.0013
9346.3557	 0.0013
9348.2844	 0.0013
9350.2131	 0.0013
9352.1418	 0.0013
9354.0704	 0.0013
9355.9991	 0.0013
9357.9278	 0.0013
9359.8565	 0.0013
9361.7851	 0.0013
9363.7138	 0.0013
9365.6425	 0.0013
9367.5712	 0.0013
9369.4998	 0.0013
9371.4285	 0.0013
9373.3572	 0.0013
9375.2859	 0.0013
9377.2145	 0.0013
9379.1432	 0.0013
9381.0719	 0.0013
9383.0005	 0.0013
9384.9292	 0.0013
9386.8579	 0.0013
9388.7866	 0.0012
9390.7152	 0.0012
9392.6439	 0.0012
9394.5726	 0.0012
9396.5013	 0.0012
9398.4299	 0.0012
9400.3586	 0.0012
9402.2873	 0.0012
9404.2160	 0.0012
9406.1446	 0.0012
9408.0733	 0.0012
9410.0020	 0.0012
9411.9307	 0.0012
9413.8593	 0.0012
9415.7880	 0.0012
9417.7167	 0.0012
9419.6454	 0.0012
9421.5740	 0.0012
9423.5027	 0.0012
9425.4314	 0.0012
9427.3601	 0.0012
9429.2887	 0.0012
9431.2174	 0.0012
9433.1461	 0.0012
9435.0748	 0.0012
9437.0034	 0.0012
9438.9321	 0.0012
9440.8608	 0.0012
9442.7895	 0.0012
9444.7181	 0.0012
9446.6468	 0.0012
9448.5755	 0.0012
9450.5042	 0.0011
9452.4328	 0.0011
9454.3615	 0.0012
9456.2902	 0.0012
9458.2188	 0.0012
9460.1475	 0.0012
9462.0762	 0.0011
9464.0049	 0.0011
9465.9335	 0.0011
9467.8622	 0.0011
9469.7909	 0.0011
9471.7196	 0.0011
9473.6482	 0.0011
9475.5769	 0.0011
9477.5056	 0.0011
9479.4343	 0.0011
9481.3629	 0.0011
9483.2916	 0.0011
9485.2203	 0.0011
9487.1490	 0.0011
9489.0776	 0.0011
9491.0063	 0.0011
9492.9350	 0.0011
9494.8637	 0.0011
9496.7923	 0.0011
9498.7210	 0.0011
9500.6497	 0.0011
9502.5784	 0.0011
9504.5070	 0.0011
9506.4357	 0.0011
9508.3644	 0.0011
9510.2931	 0.0011
9512.2217	 0.0011
9514.1504	 0.0011
9516.0791	 0.0011
9518.0078	 0.0011
9519.9364	 0.0011
9521.8651	 0.0011
9523.7938	 0.0010
9525.7224	 0.0010
9527.6511	 0.0010
9529.5798	 0.0010
9531.5085	 0.0010
9533.4371	 0.0010
9535.3658	 0.0010
9537.2945	 0.0010
9539.2232	 0.0010
9541.1518	 0.0010
9543.0805	 0.0010
9545.0092	 0.0010
9546.9379	 0.0010
9548.8665	 0.0010
9550.7952	 0.0010
9552.7239	 0.0010
9554.6526	 0.0010
9556.5812	 0.0010
9558.5099	 0.0010
9560.4386	 0.0010
9562.3673	 0.0010
9564.2959	 0.0010
9566.2246	 0.0010
9568.1533	 0.0010
9570.0820	 0.0010
9572.0106	 0.0010
9573.9393	 0.0010
9575.8680	 0.0010
9577.7967	 0.0010
9579.7253	 0.0010
9581.6540	 0.0010
9583.5827	 0.0010
9585.5114	 0.0010
9587.4400	 0.0010
9589.3687	 0.0010
9591.2974	 0.0010
9593.2260	 0.0010
9595.1547	 0.0010
9597.0834	 0.0010
9599.0121	 0.0010
9600.9407	 0.0009
9602.8694	 0.0010
9604.7981	 0.0010
9606.7268	 0.0009
9608.6554	 0.0009
9610.5841	 0.0009
9612.5128	 0.0009
9614.4415	 0.0009
9616.3701	 0.0009
9618.2988	 0.0009
9620.2275	 0.0009
9622.1562	 0.0009
9624.0848	 0.0009
9626.0135	 0.0009
9627.9422	 0.0009
9629.8709	 0.0009
9631.7995	 0.0009
9633.7282	 0.0009
9635.6569	 0.0009
9637.5856	 0.0009
9639.5142	 0.0009
9641.4429	 0.0009
9643.3716	 0.0009
9645.3003	 0.0009
9647.2289	 0.0009
9649.1576	 0.0009
9651.0863	 0.0009
9653.0150	 0.0009
9654.9436	 0.0009
9656.8723	 0.0009
9658.8010	 0.0009
9660.7297	 0.0009
9662.6583	 0.0009
9664.5870	 0.0009
9666.5157	 0.0009
9668.4443	 0.0009
9670.3730	 0.0009
9672.3017	 0.0009
9674.2304	 0.0009
9676.1590	 0.0009
9678.0877	 0.0009
9680.0164	 0.0009
9681.9451	 0.0009
9683.8737	 0.0008
9685.8024	 0.0008
9687.7311	 0.0008
9689.6598	 0.0009
9691.5884	 0.0008
9693.5171	 0.0008
9695.4458	 0.0009
9697.3745	 0.0009
9699.3031	 0.0008
9701.2318	 0.0008
9703.1605	 0.0008
9705.0892	 0.0008
9707.0178	 0.0008
9708.9465	 0.0008
9710.8752	 0.0008
9712.8039	 0.0008
9714.7325	 0.0008
9716.6612	 0.0008
9718.5899	 0.0008
9720.5186	 0.0008
9722.4472	 0.0008
9724.3759	 0.0008
9726.3046	 0.0008
9728.2333	 0.0008
9730.1619	 0.0008
9732.0906	 0.0008
9734.0193	 0.0008
9735.9479	 0.0008
9737.8766	 0.0008
9739.8053	 0.0008
9741.7340	 0.0008
9743.6626	 0.0008
9745.5913	 0.0008
9747.5200	 0.0008
9749.4487	 0.0008
9751.3773	 0.0008
9753.3060	 0.0008
9755.2347	 0.0008
9757.1634	 0.0008
9759.0920	 0.0008
9761.0207	 0.0008
9762.9494	 0.0008
9764.8781	 0.0008
9766.8067	 0.0008
9768.7354	 0.0008
9770.6641	 0.0008
9772.5928	 0.0007
9774.5214	 0.0008
9776.4501	 0.0007
9778.3788	 0.0007
9780.3075	 0.0007
9782.2361	 0.0007
9784.1648	 0.0007
9786.0935	 0.0007
9788.0222	 0.0007
9789.9508	 0.0007
9791.8795	 0.0007
9793.8082	 0.0007
9795.7369	 0.0007
9797.6655	 0.0007
9799.5942	 0.0007
9801.5229	 0.0007
9803.4516	 0.0007
9805.3802	 0.0007
9807.3089	 0.0007
9809.2376	 0.0007
9811.1662	 0.0007
9813.0949	 0.0007
9815.0236	 0.0007
9816.9523	 0.0007
9818.8809	 0.0007
9820.8096	 0.0007
9822.7383	 0.0007
9824.6670	 0.0007
9826.5956	 0.0007
9828.5243	 0.0007
9830.4530	 0.0007
9832.3817	 0.0007
9834.3103	 0.0007
9836.2390	 0.0007
9838.1677	 0.0007
9840.0964	 0.0007
9842.0250	 0.0007
9843.9537	 0.0007
9845.8824	 0.0007
9847.8111	 0.0007
9849.7397	 0.0007
9851.6684	 0.0007
9853.5971	 0.0007
9855.5258	 0.0007
9857.4544	 0.0007
9859.3831	 0.0007
9861.3118	 0.0007
9863.2405	 0.0007
9865.1691	 0.0007
9867.0978	 0.0007
9869.0265	 0.0007
9870.9552	 0.0007
9872.8838	 0.0007
9874.8125	 0.0007
9876.7412	 0.0007
9878.6698	 0.0007
9880.5985	 0.0006
9882.5272	 0.0006
9884.4559	 0.0006
9886.3845	 0.0006
9888.3132	 0.0007
9890.2419	 0.0007
9892.1706	 0.0007
9894.0992	 0.0006
9896.0279	 0.0006
9897.9566	 0.0006
9899.8853	 0.0006
9901.8139	 0.0006
9903.7426	 0.0006
9905.6713	 0.0006
9907.6000	 0.0006
9909.5286	 0.0006
9911.4573	 0.0006
9913.3860	 0.0006
9915.3147	 0.0006
9917.2433	 0.0006
9919.1720	 0.0006
9921.1007	 0.0006
9923.0294	 0.0006
9924.9580	 0.0006
9926.8867	 0.0006
9928.8154	 0.0006
9930.7441	 0.0006
9932.6727	 0.0006
9934.6014	 0.0006
9936.5301	 0.0006
9938.4588	 0.0006
9940.3874	 0.0006
9942.3161	 0.0006
9944.2448	 0.0006
9946.1734	 0.0006
9948.1021	 0.0006
9950.0308	 0.0006
9951.9595	 0.0006
9953.8881	 0.0006
9955.8168	 0.0006
9957.7455	 0.0006
9959.6742	 0.0006
9961.6028	 0.0006
9963.5315	 0.0006
9965.4602	 0.0006
9967.3889	 0.0006
9969.3175	 0.0006
9971.2462	 0.0006
9973.1749	 0.0006
9975.1036	 0.0006
9977.0322	 0.0006
9978.9609	 0.0006
9980.8896	 0.0006
9982.8183	 0.0006
9984.7469	 0.0006
9986.6756	 0.0006
9988.6043	 0.0006
9990.5330	 0.0006
9992.4616	 0.0006
9994.3903	 0.0006
9996.3190	 0.0006
9998.2477	 0.0006
10000.1763	 0.0006
10002.1050	 0.0005
10004.0337	 0.0006
10005.9624	 0.0006
10007.8910	 0.0006
10009.8197	 0.0006
10011.7484	 0.0005
10013.6771	 0.0005
10015.6057	 0.0005
10017.5344	 0.0005
10019.4631	 0.0005
10021.3917	 0.0005
10023.3204	 0.0005
10025.2491	 0.0005
10027.1778	 0.0005
10029.1064	 0.0005
10031.0351	 0.0005
10032.9638	 0.0005
10034.8925	 0.0005
10036.8211	 0.0005
10038.7498	 0.0005
10040.6785	 0.0005
10042.6072	 0.0005
10044.5358	 0.0005
10046.4645	 0.0005
10048.3932	 0.0005
10050.3219	 0.0005
10052.2505	 0.0005
10054.1792	 0.0005
10056.1079	 0.0005
10058.0366	 0.0005
10059.9652	 0.0005
10061.8939	 0.0005
10063.8226	 0.0005
10065.7513	 0.0005
10067.6799	 0.0005
10069.6086	 0.0005
10071.5373	 0.0005
10073.4660	 0.0005
10075.3946	 0.0005
10077.3233	 0.0005
10079.2520	 0.0005
10081.1807	 0.0005
10083.1093	 0.0005
10085.0380	 0.0005
10086.9667	 0.0005
10088.8953	 0.0005
10090.8240	 0.0005
10092.7527	 0.0005
10094.6814	 0.0005
10096.6100	 0.0005
10098.5387	 0.0005
10100.4674	 0.0005
10102.3961	 0.0005
10104.3247	 0.0005
10106.2534	 0.0005
10108.1821	 0.0005
10110.1108	 0.0005
10112.0394	 0.0005
10113.9681	 0.0005
10115.8968	 0.0005
10117.8255	 0.0005
10119.7541	 0.0005
10121.6828	 0.0005
10123.6115	 0.0005
10125.5402	 0.0005
10127.4688	 0.0005
10129.3975	 0.0005
10131.3262	 0.0005
10133.2549	 0.0005
10135.1835	 0.0005
10137.1122	 0.0005
10139.0409	 0.0005
10140.9696	 0.0005
10142.8982	 0.0005
10144.8269	 0.0005
10146.7556	 0.0005
10148.6843	 0.0005
10150.6129	 0.0004
10152.5416	 0.0005
10154.4703	 0.0005
10156.3990	 0.0005
10158.3276	 0.0004
10160.2563	 0.0004
10162.1850	 0.0004
10164.1136	 0.0004
10166.0423	 0.0004
10167.9710	 0.0004
10169.8997	 0.0005
10171.8283	 0.0005
10173.7570	 0.0004
10175.6857	 0.0004
10177.6144	 0.0004
10179.5430	 0.0004
10181.4717	 0.0004
10183.4004	 0.0004
10185.3291	 0.0004
10187.2577	 0.0005
10189.1864	 0.0005
10191.1151	 0.0004
10193.0438	 0.0004
10194.9724	 0.0004
10196.9011	 0.0004
10198.8298	 0.0004
10200.7585	 0.0004
10202.6871	 0.0004
10204.6158	 0.0004
10206.5445	 0.0004
10208.4732	 0.0004
10210.4018	 0.0004
10212.3305	 0.0004
10214.2592	 0.0004
10216.1879	 0.0004
10218.1165	 0.0004
10220.0452	 0.0004
10221.9739	 0.0004
10223.9026	 0.0004
10225.8312	 0.0004
10227.7599	 0.0004
10229.6886	 0.0004
10231.6172	 0.0004
10233.5459	 0.0004
10235.4746	 0.0004
10237.4033	 0.0004
10239.3319	 0.0004
10241.2606	 0.0004
10243.1893	 0.0004
10245.1180	 0.0004
10247.0466	 0.0004
10248.9753	 0.0004
10250.9040	 0.0004
10252.8327	 0.0004
10254.7613	 0.0004
10256.6900	 0.0004
10258.6187	 0.0004
10260.5474	 0.0004
10262.4760	 0.0004
10264.4047	 0.0004
10266.3334	 0.0004
10268.2621	 0.0004
10270.1907	 0.0004
10272.1194	 0.0004
10274.0481	 0.0004
10275.9768	 0.0004
10277.9054	 0.0004
10279.8341	 0.0004
10281.7628	 0.0004
10283.6915	 0.0004
10285.6201	 0.0004
10287.5488	 0.0004
10289.4775	 0.0004
10291.4062	 0.0004
10293.3348	 0.0004
10295.2635	 0.0004
10297.1922	 0.0004
10299.1208	 0.0004
10301.0495	 0.0004
10302.9782	 0.0004
10304.9069	 0.0004
10306.8355	 0.0004
10308.7642	 0.0004
10310.6929	 0.0004
10312.6216	 0.0004
10314.5502	 0.0004
10316.4789	 0.0004
10318.4076	 0.0004
10320.3363	 0.0004
10322.2649	 0.0004
10324.1936	 0.0004
10326.1223	 0.0004
10328.0510	 0.0003
10329.9796	 0.0003
10331.9083	 0.0004
10333.8370	 0.0004
10335.7657	 0.0003
10337.6943	 0.0003
10339.6230	 0.0003
10341.5517	 0.0003
10343.4804	 0.0004
10345.4090	 0.0004
10347.3377	 0.0004
10349.2664	 0.0003
10351.1951	 0.0003
10353.1237	 0.0003
10355.0524	 0.0003
10356.9811	 0.0004
10358.9098	 0.0003
10360.8384	 0.0003
10362.7671	 0.0003
10364.6958	 0.0003
10366.6245	 0.0003
10368.5531	 0.0003
10370.4818	 0.0003
10372.4105	 0.0003
10374.3391	 0.0003
10376.2678	 0.0003
10378.1965	 0.0003
10380.1252	 0.0003
10382.0538	 0.0003
10383.9825	 0.0003
10385.9112	 0.0003
10387.8399	 0.0003
10389.7685	 0.0003
10391.6972	 0.0003
10393.6259	 0.0003
10395.5546	 0.0003
10397.4832	 0.0003
10399.4119	 0.0003
10401.3406	 0.0003
10403.2693	 0.0003
10405.1979	 0.0003
10407.1266	 0.0003
10409.0553	 0.0003
10410.9840	 0.0003
10412.9126	 0.0003
10414.8413	 0.0003
10416.7700	 0.0003
10418.6987	 0.0003
10420.6273	 0.0003
10422.5560	 0.0003
10424.4847	 0.0003
10426.4134	 0.0003
10428.3420	 0.0003
10430.2707	 0.0003
10432.1994	 0.0003
10434.1281	 0.0003
10436.0567	 0.0003
10437.9854	 0.0003
10439.9141	 0.0003
10441.8427	 0.0003
10443.7714	 0.0003
10445.7001	 0.0003
10447.6288	 0.0003
10449.5574	 0.0003
10451.4861	 0.0003
10453.4148	 0.0003
10455.3435	 0.0003
10457.2721	 0.0003
10459.2008	 0.0003
10461.1295	 0.0003
10463.0582	 0.0003
10464.9868	 0.0003
10466.9155	 0.0003
10468.8442	 0.0003
10470.7729	 0.0003
10472.7015	 0.0003
10474.6302	 0.0003
10476.5589	 0.0003
10478.4876	 0.0003
10480.4162	 0.0003
10482.3449	 0.0003
10484.2736	 0.0003
10486.2023	 0.0003
10488.1309	 0.0003
10490.0596	 0.0003
10491.9883	 0.0003
10493.9170	 0.0003
10495.8456	 0.0003
10497.7743	 0.0003
10499.7030	 0.0003
10501.6317	 0.0003
10503.5603	 0.0003
10505.4890	 0.0003
10507.4177	 0.0003
10509.3464	 0.0003
10511.2750	 0.0003
10513.2037	 0.0003
10515.1324	 0.0003
10517.0610	 0.0003
10518.9897	 0.0003
10520.9184	 0.0003
10522.8471	 0.0003
10524.7757	 0.0002
10526.7044	 0.0003
10528.6331	 0.0003
10530.5618	 0.0003
10532.4904	 0.0003
10534.4191	 0.0003
10536.3478	 0.0003
10538.2765	 0.0003
10540.2051	 0.0003
10542.1338	 0.0003
10544.0625	 0.0003
10545.9912	 0.0003
10547.9198	 0.0003
10549.8485	 0.0003
10551.7772	 0.0002
10553.7059	 0.0002
10555.6345	 0.0002
10557.5632	 0.0002
10559.4919	 0.0002
10561.4206	 0.0002
10563.3492	 0.0003
10565.2779	 0.0002
10567.2066	 0.0002
10569.1353	 0.0002
10571.0639	 0.0002
10572.9926	 0.0002
10574.9213	 0.0002
10576.8500	 0.0002
10578.7786	 0.0002
10580.7073	 0.0002
10582.6360	 0.0002
10584.5646	 0.0002
10586.4933	 0.0002
10588.4220	 0.0002
10590.3507	 0.0002
10592.2793	 0.0002
10594.2080	 0.0002
10596.1367	 0.0002
10598.0654	 0.0002
10599.9940	 0.0002
10601.9227	 0.0002
10603.8514	 0.0002
10605.7801	 0.0002
10607.7087	 0.0002
10609.6374	 0.0002
10611.5661	 0.0002
10613.4948	 0.0002
10615.4234	 0.0002
10617.3521	 0.0002
10619.2808	 0.0002
10621.2095	 0.0002
10623.1381	 0.0002
10625.0668	 0.0002
10626.9955	 0.0002
10628.9242	 0.0002
10630.8528	 0.0002
10632.7815	 0.0002
10634.7102	 0.0002
10636.6389	 0.0002
10638.5675	 0.0002
10640.4962	 0.0002
10642.4249	 0.0002
10644.3536	 0.0002
10646.2822	 0.0002
10648.2109	 0.0002
10650.1396	 0.0002
10652.0682	 0.0002
10653.9969	 0.0002
10655.9256	 0.0002
10657.8543	 0.0002
10659.7829	 0.0002
10661.7116	 0.0002
10663.6403	 0.0002
10665.5690	 0.0002
10667.4976	 0.0002
10669.4263	 0.0002
10671.3550	 0.0002
10673.2837	 0.0002
10675.2123	 0.0002
10677.1410	 0.0002
10679.0697	 0.0002
10680.9984	 0.0002
10682.9270	 0.0002
10684.8557	 0.0002
10686.7844	 0.0002
10688.7131	 0.0002
10690.6417	 0.0002
10692.5704	 0.0002
10694.4991	 0.0002
10696.4278	 0.0002
10698.3564	 0.0002
10700.2851	 0.0002
10702.2138	 0.0002
10704.1425	 0.0002
10706.0711	 0.0002
10707.9998	 0.0002
10709.9285	 0.0002
10711.8572	 0.0002
10713.7858	 0.0002
10715.7145	 0.0002
10717.6432	 0.0002
10719.5719	 0.0002
10721.5005	 0.0002
10723.4292	 0.0002
10725.3579	 0.0002
10727.2865	 0.0002
10729.2152	 0.0002
10731.1439	 0.0002
10733.0726	 0.0002
10735.0012	 0.0002
10736.9299	 0.0002
10738.8586	 0.0002
10740.7873	 0.0002
10742.7159	 0.0002
10744.6446	 0.0002
10746.5733	 0.0002
10748.5020	 0.0002
10750.4306	 0.0002
10752.3593	 0.0002
10754.2880	 0.0002
10756.2167	 0.0002
10758.1453	 0.0002
10760.0740	 0.0002
10762.0027	 0.0002
10763.9314	 0.0002
10765.8600	 0.0002
10767.7887	 0.0002
10769.7174	 0.0002
10771.6461	 0.0002
10773.5747	 0.0002
10775.5034	 0.0002
10777.4321	 0.0002
10779.3608	 0.0002
10781.2894	 0.0002
10783.2181	 0.0002
10785.1468	 0.0002
10787.0755	 0.0002
10789.0041	 0.0002
10790.9328	 0.0002
10792.8615	 0.0002
10794.7901	 0.0002
10796.7188	 0.0002
10798.6475	 0.0002
10800.5762	 0.0002
10802.5048	 0.0001
10804.4335	 0.0002
10806.3622	 0.0002
10808.2909	 0.0002
10810.2195	 0.0002
10812.1482	 0.0002
10814.0769	 0.0002
10816.0056	 0.0002
10817.9342	 0.0002
10819.8629	 0.0002
10821.7916	 0.0001
10823.7203	 0.0001
10825.6489	 0.0002
10827.5776	 0.0002
10829.5063	 0.0001
10831.4350	 0.0001
10833.3636	 0.0001
10835.2923	 0.0001
10837.2210	 0.0001
10839.1497	 0.0001
10841.0783	 0.0001
10843.0070	 0.0001
10844.9357	 0.0001
10846.8644	 0.0001
10848.7930	 0.0001
10850.7217	 0.0001
10852.6504	 0.0001
10854.5791	 0.0001
10856.5077	 0.0001
10858.4364	 0.0001
10860.3651	 0.0002
10862.2938	 0.0002
10864.2224	 0.0002
10866.1511	 0.0001
10868.0798	 0.0001
10870.0084	 0.0001
10871.9371	 0.0001
10873.8658	 0.0001
10875.7945	 0.0001
10877.7231	 0.0001
10879.6518	 0.0002
10881.5805	 0.0002
10883.5092	 0.0002
10885.4378	 0.0002
10887.3665	 0.0001
10889.2952	 0.0001
10891.2239	 0.0001
10893.1525	 0.0001
10895.0812	 0.0001
10897.0099	 0.0001
10898.9386	 0.0001
10900.8672	 0.0001
10902.7959	 0.0001
10904.7246	 0.0001
10906.6533	 0.0001
10908.5819	 0.0001
10910.5106	 0.0001
10912.4393	 0.0001
10914.3680	 0.0001
10916.2966	 0.0001
10918.2253	 0.0001
10920.1540	 0.0001
10922.0827	 0.0001
10924.0113	 0.0001
10925.9400	 0.0001
10927.8687	 0.0001
10929.7974	 0.0001
10931.7260	 0.0001
10933.6547	 0.0001
10935.5834	 0.0001
10937.5120	 0.0001
10939.4407	 0.0001
10941.3694	 0.0001
10943.2981	 0.0001
10945.2267	 0.0001
10947.1554	 0.0001
10949.0841	 0.0001
10951.0128	 0.0001
10952.9414	 0.0001
10954.8701	 0.0001
10956.7988	 0.0001
10958.7275	 0.0001
10960.6561	 0.0001
10962.5848	 0.0001
10964.5135	 0.0001
10966.4422	 0.0001
10968.3708	 0.0001
10970.2995	 0.0001
10972.2282	 0.0001
10974.1569	 0.0001
10976.0855	 0.0001
10978.0142	 0.0001
10979.9429	 0.0001
10981.8716	 0.0001
10983.8002	 0.0001
10985.7289	 0.0001
10987.6576	 0.0001
10989.5863	 0.0001
10991.5149	 0.0001
10993.4436	 0.0001
10995.3723	 0.0001
10997.3010	 0.0001
10999.2296	 0.0001
11001.1583	 0.0001
11003.0870	 0.0001
11005.0156	 0.0001
11006.9443	 0.0001
11008.8730	 0.0001
11010.8017	 0.0001
11012.7303	 0.0001
11014.6590	 0.0001
11016.5877	 0.0001
11018.5164	 0.0001
11020.4450	 0.0001
11022.3737	 0.0001
11024.3024	 0.0001
11026.2311	 0.0001
11028.1597	 0.0001
11030.0884	 0.0001
11032.0171	 0.0001
11033.9458	 0.0001
11035.8744	 0.0001
11037.8031	 0.0001
11039.7318	 0.0001
11041.6605	 0.0001
11043.5891	 0.0001
11045.5178	 0.0001
11047.4465	 0.0001
11049.3752	 0.0001
11051.3038	 0.0001
11053.2325	 0.0001
11055.1612	 0.0001
11057.0899	 0.0001
11059.0185	 0.0001
11060.9472	 0.0001
11062.8759	 0.0001
11064.8046	 0.0001
11066.7332	 0.0001
11068.6619	 0.0001
11070.5906	 0.0001
11072.5193	 0.0001
11074.4479	 0.0001
11076.3766	 0.0001
11078.3053	 0.0001
11080.2339	 0.0001
11082.1626	 0.0001
11084.0913	 0.0001
11086.0200	 0.0001
11087.9486	 0.0001
11089.8773	 0.0001
11091.8060	 0.0001
11093.7347	 0.0001
11095.6633	 0.0001
11097.5920	 0.0001
11099.5207	 0.0001
11101.4494	 0.0001
11103.3780	 0.0001
11105.3067	 0.0001
11107.2354	 0.0001
11109.1641	 0.0001
11111.0927	 0.0001
11113.0214	 0.0001
11114.9501	 0.0001
11116.8788	 0.0001
11118.8074	 0.0001
11120.7361	 0.0001
11122.6648	 0.0001
11124.5935	 0.0001
11126.5221	 0.0001
11128.4508	 0.0001
11130.3795	 0.0001
11132.3082	 0.0001
11134.2368	 0.0001
11136.1655	 0.0001
11138.0942	 0.0001
11140.0229	 0.0001
11141.9515	 0.0001
11143.8802	 0.0001
11145.8089	 0.0001
11147.7375	 0.0001
11149.6662	 0.0001
11151.5949	 0.0001
11153.5236	 0.0001
11155.4522	 0.0001
11157.3809	 0.0001
11159.3096	 0.0001
11161.2383	 0.0001
11163.1669	 0.0001
11165.0956	 0.0001
11167.0243	 0.0001
11168.9530	 0.0001
11170.8816	 0.0001
11172.8103	 0.0001
11174.7390	 0.0001
11176.6677	 0.0001
11178.5963	 0.0001
11180.5250	 0.0001
11182.4537	 0.0001
11184.3824	 0.0001
11186.3110	 0.0001
11188.2397	 0.0001
11190.1684	 0.0001
11192.0971	 0.0001
11194.0257	 0.0000
11195.9544	 0.0001
11197.8831	 0.0001
11199.8118	 0.0001
11201.7404	 0.0001
11203.6691	 0.0001
11205.5978	 0.0001
11207.5265	 0.0001
11209.4551	 0.0001
11211.3838	 0.0001
11213.3125	 0.0001
11215.2411	 0.0001
11217.1698	 0.0001
11219.0985	 0.0001
11221.0272	 0.0001
11222.9558	 0.0001
11224.8845	 0.0001
11226.8132	 0.0001
11228.7419	 0.0001
11230.6705	 0.0000
11232.5992	 0.0000
11234.5279	 0.0001
11236.4566	 0.0001
11238.3852	 0.0001
11240.3139	 0.0001
11242.2426	 0.0001
11244.1713	 0.0000
11246.0999	 0.0000
11248.0286	 0.0001
11249.9573	 0.0001
11251.8860	 0.0000
11253.8146	 0.0000
11255.7433	 0.0001
11257.6720	 0.0001
11259.6007	 0.0001
11261.5293	 0.0001
11263.4580	 0.0001
11265.3867	 0.0001
11267.3154	 0.0001
11269.2440	 0.0000
11271.1727	 0.0000
11273.1014	 0.0000
11275.0301	 0.0000
11276.9587	 0.0001
11278.8874	 0.0001
11280.8161	 0.0000
11282.7448	 0.0001
11284.6734	 0.0001
11286.6021	 0.0001
11288.5308	 0.0000
11290.4594	 0.0000
11292.3881	 0.0000
11294.3168	 0.0000
11296.2455	 0.0000
11298.1741	 0.0000
11300.1028	 0.0000
11302.0315	 0.0000
11303.9602	 0.0000
11305.8888	 0.0000
11307.8175	 0.0000
11309.7462	 0.0000
11311.6749	 0.0000
11313.6035	 0.0000
11315.5322	 0.0001
11317.4609	 0.0001
11319.3896	 0.0000
11321.3182	 0.0000
11323.2469	 0.0001
11325.1756	 0.0001
11327.1043	 0.0001
11329.0329	 0.0001
11330.9616	 0.0000
11332.8903	 0.0000
11334.8190	 0.0000
11336.7476	 0.0001
11338.6763	 0.0001
11340.6050	 0.0000
11342.5337	 0.0000
11344.4623	 0.0000
11346.3910	 0.0000
11348.3197	 0.0000
11350.2484	 0.0000
11352.1770	 0.0000
11354.1057	 0.0000
11356.0344	 0.0000
11357.9630	 0.0000
11359.8917	 0.0000
11361.8204	 0.0000
11363.7491	 0.0000
11365.6777	 0.0000
11367.6064	 0.0000
11369.5351	 0.0000
11371.4638	 0.0000
11373.3924	 0.0001
11375.3211	 0.0000
11377.2498	 0.0000
11379.1785	 0.0000
11381.1071	 0.0000
11383.0358	 0.0000
11384.9645	 0.0000
11386.8932	 0.0000
11388.8218	 0.0000
11390.7505	 0.0000
11392.6792	 0.0000
11394.6079	 0.0000
11396.5365	 0.0000
11398.4652	 0.0000
11400.3939	 0.0000
11402.3226	 0.0001
11404.2512	 0.0000
11406.1799	 0.0000
11408.1086	 0.0000
11410.0373	 0.0000
11411.9659	 0.0000
11413.8946	 0.0000
11415.8233	 0.0000
11417.7520	 0.0000
11419.6806	 0.0000
11421.6093	 0.0000
11423.5380	 0.0000
11425.4667	 0.0000
11427.3953	 0.0000
11429.3240	 0.0000
11431.2527	 0.0000
11433.1813	 0.0000
11435.1100	 0.0000
11437.0387	 0.0000
11438.9674	 0.0000
11440.8960	 0.0001
11442.8247	 0.0000
11444.7534	 0.0000
11446.6821	 0.0000
11448.6107	 0.0000
11450.5394	 0.0000
11452.4681	 0.0000
11454.3968	 0.0000
11456.3254	 0.0000
11458.2541	 0.0000
11460.1828	 0.0000
11462.1115	 0.0001
11464.0401	 0.0001
11465.9688	 0.0000
11467.8975	 0.0000
11469.8262	 0.0000
11471.7548	 0.0000
11473.6835	 0.0000
11475.6122	 0.0000
11477.5409	 0.0000
11479.4695	 0.0000
11481.3982	 0.0000
11483.3269	 0.0000
11485.2556	 0.0000
11487.1842	 0.0000
11489.1129	 0.0000
11491.0416	 0.0000
11492.9703	 0.0000
11494.8989	 0.0000
11496.8276	 0.0000
11498.7563	 0.0000
11500.6849	 0.0000
11502.6136	 0.0000
11504.5423	 0.0000
11506.4710	 0.0000
11508.3996	 0.0000
11510.3283	 0.0000
11512.2570	 0.0000
11514.1857	 0.0000
11516.1143	 0.0000
11518.0430	 0.0000
11519.9717	 0.0000
11521.9004	 0.0000
11523.8290	 0.0000
11525.7577	 0.0000
11527.6864	 0.0000
11529.6151	 0.0000
11531.5437	 0.0000
11533.4724	 0.0000
11535.4011	 0.0000
11537.3298	 0.0000
11539.2584	 0.0000
11541.1871	 0.0000
11543.1158	 0.0000
11545.0445	 0.0000
11546.9731	 0.0000
11548.9018	 0.0000
11550.8305	 0.0000
11552.7592	 0.0000
11554.6878	 0.0000
11556.6165	 0.0000
11558.5452	 0.0000
11560.4739	 0.0000
11562.4025	 0.0000
11564.3312	 0.0000
11566.2599	 0.0000
11568.1885	 0.0000
11570.1172	 0.0000
11572.0459	 0.0000
11573.9746	 0.0000
11575.9032	 0.0000
11577.8319	 0.0000
11579.7606	 0.0000
11581.6893	 0.0000
11583.6179	 0.0000
11585.5466	 0.0000
11587.4753	 0.0000
11589.4040	 0.0000
11591.3326	 0.0000
11593.2613	 0.0000
11595.1900	 0.0000
11597.1187	 0.0000
11599.0473	 0.0000
11600.9760	 0.0000
11602.9047	 0.0000
11604.8334	 0.0000
11606.7620	 0.0000
11608.6907	 0.0000
11610.6194	 0.0000
11612.5481	 0.0000
11614.4767	 0.0000
11616.4054	 0.0000
11618.3341	 0.0000
11620.2628	 0.0000
11622.1914	 0.0000
11624.1201	 0.0000
11626.0488	 0.0000
11627.9775	 0.0000
11629.9061	 0.0000
11631.8348	 0.0000
11633.7635	 0.0000
11635.6922	 0.0000
11637.6208	 0.0000
11639.5495	 0.0000
11641.4782	 0.0000
11643.4068	 0.0000
11645.3355	 0.0000
11647.2642	 0.0000
11649.1929	 0.0000
11651.1215	 0.0000
11653.0502	 0.0000
11654.9789	 0.0000
11656.9076	 0.0000
11658.8362	 0.0000
11660.7649	 0.0000
11662.6936	 0.0000
11664.6223	 0.0000
11666.5509	 0.0000
11668.4796	 0.0000
11670.4083	 0.0000
11672.3370	 0.0000
11674.2656	 0.0000
11676.1943	 0.0000
11678.1230	 0.0000
11680.0517	 0.0000
11681.9803	 0.0000
11683.9090	 0.0000
11685.8377	 0.0000
11687.7664	 0.0000
11689.6950	 0.0000
11691.6237	 0.0000
11693.5524	 0.0000
11695.4811	 0.0000
11697.4097	 0.0000
11699.3384	 0.0000
11701.2671	 0.0000
11703.1958	 0.0000
11705.1244	 0.0000
11707.0531	 0.0000
11708.9818	 0.0000
11710.9104	 0.0000
11712.8391	 0.0000
11714.7678	 0.0000
11716.6965	 0.0000
11718.6251	 0.0000
11720.5538	 0.0000
11722.4825	 0.0000
11724.4112	 0.0000
11726.3398	 0.0000
11728.2685	 0.0000
11730.1972	 0.0000
11732.1259	 0.0000
11734.0545	 0.0000
11735.9832	 0.0000
11737.9119	 0.0000
11739.8406	 0.0000
11741.7692	 0.0000
11743.6979	 0.0000
11745.6266	 0.0000
11747.5553	 0.0000
11749.4839	 0.0000
11751.4126	 0.0000
11753.3413	 0.0000
11755.2700	 0.0000
11757.1986	 0.0000
11759.1273	 0.0000
11761.0560	 0.0000
11762.9847	 0.0000
11764.9133	 0.0000
11766.8420	 0.0000
11768.7707	 0.0000
11770.6994	 0.0000
11772.6280	 0.0000
11774.5567	 0.0000
11776.4854	 0.0000
11778.4141	 0.0000
11780.3427	 0.0000
11782.2714	 0.0000
11784.2001	 0.0000
11786.1287	 0.0000
11788.0574	 0.0000
11789.9861	 0.0000
11791.9148	 0.0000
11793.8434	 0.0000
11795.7721	 0.0000
11797.7008	 0.0000
11799.6295	 0.0000
11801.5581	 0.0000
11803.4868	 0.0000
11805.4155	 0.0000
11807.3442	 0.0000
11809.2728	 0.0000
11811.2015	 0.0000
11813.1302	 0.0000
11815.0589	 0.0000
11816.9875	 0.0000
11818.9162	 0.0000
11820.8449	 0.0000
11822.7736	 0.0000
11824.7022	 0.0000
11826.6309	 0.0000
11828.5596	 0.0000
11830.4883	 0.0000
11832.4169	 0.0000
11834.3456	 0.0000
11836.2743	 0.0000
11838.2030	 0.0000
11840.1316	 0.0000
11842.0603	 0.0000
11843.9890	 0.0000
11845.9177	 0.0000
11847.8463	 0.0000
11849.7750	 0.0000
11851.7037	 0.0000
11853.6323	 0.0000
11855.5610	 0.0000
11857.4897	 0.0000
11859.4184	 0.0000
11861.3470	 0.0000
11863.2757	 0.0000
11865.2044	 0.0000
11867.1331	 0.0000
11869.0617	 0.0000
11870.9904	 0.0000
11872.9191	 0.0000
11874.8478	 0.0000
11876.7764	 0.0000
11878.7051	 0.0000
11880.6338	 0.0000
11882.5625	 0.0000
11884.4911	 0.0000
11886.4198	 0.0000
11888.3485	 0.0000
11890.2772	 0.0000
11892.2058	 0.0000
11894.1345	 0.0000
11896.0632	 0.0000
11897.9919	 0.0000
11899.9205	 0.0000
11901.8492	 0.0000
11903.7779	 0.0000
11905.7066	 0.0000
11907.6352	 0.0000
11909.5639	 0.0000
11911.4926	 0.0000
11913.4213	 0.0000
11915.3499	 0.0000
11917.2786	 0.0000
11919.2073	 0.0000
11921.1359	 0.0000
11923.0646	 0.0000
11924.9933	 0.0000
11926.9220	 0.0000
11928.8506	 0.0000
11930.7793	 0.0000
11932.7080	 0.0000
11934.6367	 0.0000
11936.5653	 0.0000
11938.4940	 0.0000
11940.4227	 0.0000
11942.3514	 0.0000
11944.2800	 0.0000
11946.2087	 0.0000
11948.1374	 0.0000
11950.0661	 0.0000
11951.9947	 0.0000
11953.9234	 0.0000
11955.8521	 0.0000
11957.7808	 0.0000
11959.7094	 0.0000
11961.6381	 0.0000
11963.5668	 0.0000
11965.4955	 0.0000
11967.4241	 0.0000
11969.3528	 0.0000
11971.2815	 0.0000
11973.2102	 0.0000
11975.1388	 0.0000
11977.0675	 0.0000
11978.9962	 0.0000
11980.9249	 0.0000
11982.8535	 0.0000
11984.7822	 0.0000
11986.7109	 0.0000
11988.6396	 0.0000
11990.5682	 0.0000
11992.4969	 0.0000
11994.4256	 0.0000
11996.3542	 0.0000
11998.2829	 0.0000
12000.2116	 0.0000
12002.1403	 0.0000
12004.0689	 0.0000
12005.9976	 0.0000
12007.9263	 0.0000
12009.8550	 0.0000
12011.7836	 0.0000
12013.7123	 0.0000
12015.6410	 0.0000
12017.5697	 0.0000
12019.4983	 0.0000
12021.4270	 0.0000
12023.3557	 0.0000
12025.2844	 0.0000
12027.2130	 0.0000
12029.1417	 0.0000
12031.0704	 0.0000
12032.9991	 0.0000
12034.9277	 0.0000
12036.8564	 0.0000
12038.7851	 0.0000
12040.7138	 0.0000
12042.6424	 0.0000
12044.5711	 0.0000
12046.4998	 0.0000
12048.4285	 0.0000
12050.3571	 0.0000
12052.2858	 0.0000
12054.2145	 0.0000
12056.1432	 0.0000
12058.0718	 0.0000
12060.0005	 0.0000
12061.9292	 0.0000
12063.8578	 0.0000
12065.7865	 0.0000
12067.7152	 0.0000
12069.6439	 0.0000
12071.5725	 0.0000
12073.5012	 0.0000
12075.4299	 0.0000
12077.3586	 0.0000
12079.2872	 0.0000
12081.2159	 0.0000
12083.1446	 0.0000
12085.0733	 0.0000
12087.0019	 0.0000
12088.9306	 0.0000
12090.8593	 0.0000
12092.7880	 0.0000
12094.7166	 0.0000
12096.6453	 0.0000
12098.5740	 0.0000
12100.5027	 0.0000
12102.4313	 0.0000
12104.3600	 0.0000
12106.2887	 0.0000
12108.2174	 0.0000
12110.1460	 0.0000
12112.0747	 0.0000
12114.0034	 0.0000
12115.9321	 0.0000
12117.8607	 0.0000
12119.7894	 0.0000
12121.7181	 0.0000
12123.6468	 0.0000
12125.5754	 0.0000
12127.5041	 0.0000
12129.4328	 0.0000
12131.3615	 0.0000
12133.2901	 0.0000
12135.2188	 0.0000
12137.1475	 0.0000
12139.0761	 0.0000
12141.0048	 0.0000
12142.9335	 0.0000
12144.8622	 0.0000
12146.7908	 0.0000
12148.7195	 0.0000
12150.6482	 0.0000
12152.5769	 0.0000
12154.5055	 0.0000
12156.4342	 0.0000
12158.3629	 0.0000
12160.2916	 0.0000
12162.2202	 0.0000
12164.1489	 0.0000
12166.0776	 0.0000
12168.0063	 0.0000
12169.9349	 0.0000
12171.8636	 0.0000
12173.7923	 0.0000
12175.7210	 0.0000
12177.6496	 0.0000
12179.5783	 0.0000
12181.5070	 0.0000
12183.4357	 0.0000
12185.3643	 0.0000
12187.2930	 0.0000
12189.2217	 0.0000
12191.1504	 0.0000
12193.0790	 0.0000
12195.0077	 0.0000
12196.9364	 0.0000
12198.8651	 0.0000
12200.7937	 0.0000
12202.7224	 0.0000
12204.6511	 0.0000
12206.5797	 0.0000
12208.5084	 0.0000
12210.4371	 0.0000
12212.3658	 0.0000
12214.2944	 0.0000
12216.2231	 0.0000
12218.1518	 0.0000
12220.0805	 0.0000
12222.0091	 0.0000
12223.9378	 0.0000
12225.8665	 0.0000
12227.7952	 0.0000
12229.7238	 0.0000
12231.6525	 0.0000
12233.5812	 0.0000
12235.5099	 0.0000
12237.4385	 0.0000
12239.3672	 0.0000
12241.2959	 0.0000
12243.2246	 0.0000
12245.1532	 0.0000
12247.0819	 0.0000
12249.0106	 0.0000
12250.9393	 0.0000
12252.8679	 0.0000
12254.7966	 0.0000
12256.7253	 0.0000
12258.6540	 0.0000
12260.5826	 0.0000
12262.5113	 0.0000
12264.4400	 0.0000
12266.3687	 0.0000
12268.2973	 0.0000
12270.2260	 0.0000
12272.1547	 0.0000
12274.0833	 0.0000
12276.0120	 0.0000
12277.9407	 0.0000
12279.8694	 0.0000
12281.7980	 0.0000
12283.7267	 0.0000
12285.6554	 0.0000
12287.5841	 0.0000
12289.5127	 0.0000
12291.4414	 0.0000
12293.3701	 0.0000
12295.2988	 0.0000
12297.2274	 0.0000
12299.1561	 0.0000
12301.0848	 0.0000
12303.0135	 0.0000
12304.9421	 0.0000
12306.8708	 0.0000
12308.7995	 0.0000
12310.7282	 0.0000
12312.6568	 0.0000
12314.5855	 0.0000
12316.5142	 0.0000
12318.4429	 0.0000
12320.3715	 0.0000
12322.3002	 0.0000
12324.2289	 0.0000
12326.1576	 0.0000
12328.0862	 0.0000
12330.0149	 0.0000
12331.9436	 0.0000
12333.8723	 0.0000
12335.8009	 0.0000
12337.7296	 0.0000
12339.6583	 0.0000
12341.5870	 0.0000
12343.5156	 0.0000
12345.4443	 0.0000
12347.3730	 0.0000
12349.3016	 0.0000
12351.2303	 0.0000
12353.1590	 0.0000
12355.0877	 0.0000
12357.0163	 0.0000
12358.9450	 0.0000
12360.8737	 0.0000
12362.8024	 0.0000
12364.7310	 0.0000
12366.6597	 0.0000
12368.5884	 0.0000
12370.5171	 0.0000
12372.4457	 0.0000
12374.3744	 0.0000
12376.3031	 0.0000
12378.2318	 0.0000
12380.1604	 0.0000
12382.0891	 0.0000
12384.0178	 0.0000
12385.9465	 0.0000
12387.8751	 0.0000
12389.8038	 0.0000
12391.7325	 0.0000
12393.6612	 0.0000
12395.5898	 0.0000
12397.5185	 0.0000
12399.4472	 0.0000
12401.3759	 0.0000
12403.3045	 0.0000
12405.2332	 0.0000
12407.1619	 0.0000
12409.0906	 0.0000
12411.0192	 0.0000
12412.9479	 0.0000
12414.8766	 0.0000
12416.8052	 0.0000
12418.7339	 0.0000
12420.6626	 0.0000
12422.5913	 0.0000
12424.5199	 0.0000
12426.4486	 0.0000
12428.3773	 0.0000
12430.3060	 0.0000
12432.2346	 0.0000
12434.1633	 0.0000
12436.0920	 0.0000
12438.0207	 0.0000
12439.9493	 0.0000
12441.8780	 0.0000
12443.8067	 0.0000
12445.7354	 0.0000
12447.6640	 0.0000
12449.5927	 0.0000
12451.5214	 0.0000
12453.4501	 0.0000
12455.3787	 0.0000
12457.3074	 0.0000
12459.2361	 0.0000
12461.1648	 0.0000
12463.0934	 0.0000
12465.0221	 0.0000
12466.9508	 0.0000
12468.8795	 0.0000
12470.8081	 0.0000
12472.7368	 0.0000
12474.6655	 0.0000
12476.5942	 0.0000
12478.5228	 0.0000
12480.4515	 0.0000
12482.3802	 0.0000
12484.3089	 0.0000
12486.2375	 0.0000
12488.1662	 0.0000
12490.0949	 0.0000
12492.0235	 0.0000
12493.9522	 0.0000
12495.8809	 0.0000
12497.8096	 0.0000
12499.7382	 0.0000
12501.6669	 0.0000
12503.5956	 0.0000
12505.5243	 0.0000
12507.4529	 0.0000
12509.3816	 0.0000
12511.3103	 0.0000
12513.2390	 0.0000
12515.1676	 0.0000
12517.0963	 0.0000
12519.0250	 0.0000
12520.9537	 0.0000
12522.8823	 0.0000
12524.8110	 0.0000
12526.7397	 0.0000
12528.6684	 0.0000
12530.5970	 0.0000
12532.5257	 0.0000
12534.4544	 0.0000
12536.3831	 0.0000
12538.3117	 0.0000
12540.2404	 0.0000
12542.1691	 0.0000
12544.0978	 0.0000
12546.0264	 0.0000
12547.9551	 0.0000
12549.8838	 0.0000
12551.8125	 0.0000
12553.7411	 0.0000
12555.6698	 0.0000
12557.5985	 0.0000
12559.5271	 0.0000
12561.4558	 0.0000
12563.3845	 0.0000
12565.3132	 0.0000
12567.2418	 0.0000
12569.1705	 0.0000
12571.0992	 0.0000
12573.0279	 0.0000
12574.9565	 0.0000
12576.8852	 0.0000
12578.8139	 0.0000
12580.7426	 0.0000
12582.6712	 0.0000
12584.5999	 0.0000
12586.5286	 0.0000
12588.4573	 0.0000
12590.3859	 0.0000
12592.3146	 0.0000
12594.2433	 0.0000
12596.1720	 0.0000
12598.1006	 0.0000
12600.0293	 0.0000
12601.9580	 0.0000
12603.8867	 0.0000
12605.8153	 0.0000
12607.7440	 0.0000
12609.6727	 0.0000
12611.6014	 0.0000
12613.5300	 0.0000
12615.4587	 0.0000
12617.3874	 0.0000
12619.3161	 0.0000
12621.2447	 0.0000
12623.1734	 0.0000
12625.1021	 0.0000
12627.0307	 0.0000
12628.9594	 0.0000
12630.8881	 0.0000
12632.8168	 0.0000
12634.7454	 0.0000
12636.6741	 0.0000
12638.6028	 0.0000
12640.5315	 0.0000
12642.4601	 0.0000
12644.3888	 0.0000
12646.3175	 0.0000
12648.2462	 0.0000
12650.1748	 0.0000
12652.1035	 0.0000
12654.0322	 0.0000
12655.9609	 0.0000
12657.8895	 0.0000
12659.8182	 0.0000
12661.7469	 0.0000
12663.6756	 0.0000
12665.6042	 0.0000
12667.5329	 0.0000
12669.4616	 0.0000
12671.3903	 0.0000
12673.3189	 0.0000
12675.2476	 0.0000
12677.1763	 0.0000
12679.1050	 0.0000
12681.0336	 0.0000
12682.9623	 0.0000
12684.8910	 0.0000
12686.8197	 0.0000
12688.7483	 0.0000
12690.6770	 0.0000
12692.6057	 0.0000
12694.5344	 0.0000
12696.4630	 0.0000
12698.3917	 0.0000
12700.3204	 0.0000
12702.2490	 0.0000
12704.1777	 0.0000
12706.1064	 0.0000
12708.0351	 0.0000
12709.9637	 0.0000
12711.8924	 0.0000
12713.8211	 0.0000
12715.7498	 0.0000
12717.6784	 0.0000
12719.6071	 0.0000
12721.5358	 0.0000
12723.4645	 0.0000
12725.3931	 0.0000
12727.3218	 0.0000
12729.2505	 0.0000
12731.1792	 0.0000
12733.1078	 0.0000
12735.0365	 0.0000
12736.9652	 0.0000
12738.8939	 0.0000
12740.8225	 0.0000
12742.7512	 0.0000
12744.6799	 0.0000
12746.6086	 0.0000
12748.5372	 0.0000
12750.4659	 0.0000
12752.3946	 0.0000
12754.3233	 0.0000
12756.2519	 0.0000
12758.1806	 0.0000
12760.1093	 0.0000
12762.0380	 0.0000
12763.9666	 0.0000
12765.8953	 0.0000
12767.8240	 0.0000
12769.7526	 0.0000
12771.6813	 0.0000
12773.6100	 0.0000
12775.5387	 0.0000
12777.4673	 0.0000
12779.3960	 0.0000
12781.3247	 0.0000
12783.2534	 0.0000
12785.1820	 0.0000
12787.1107	 0.0000
12789.0394	 0.0000
12790.9681	 0.0000
12792.8967	 0.0000
12794.8254	 0.0000
12796.7541	 0.0000
12798.6828	 0.0000
12800.6114	 0.0000
12802.5401	 0.0000
12804.4688	 0.0000
12806.3975	 0.0000
12808.3261	 0.0000
12810.2548	 0.0000
12812.1835	 0.0000
12814.1122	 0.0000
12816.0408	 0.0000
12817.9695	 0.0000
12819.8982	 0.0000
12821.8269	 0.0000
12823.7555	 0.0000
12825.6842	 0.0000
12827.6129	 0.0000
12829.5416	 0.0000
12831.4702	 0.0000
12833.3989	 0.0000
12835.3276	 0.0000
12837.2562	 0.0000
12839.1849	 0.0000
12841.1136	 0.0000
12843.0423	 0.0000
12844.9709	 0.0000
12846.8996	 0.0000
12848.8283	 0.0000
12850.7570	 0.0000
12852.6856	 0.0000
12854.6143	 0.0000
12856.5430	 0.0000
12858.4717	 0.0000
12860.4003	 0.0000
12862.3290	 0.0000
12864.2577	 0.0000
12866.1864	 0.0000
12868.1150	 0.0000
12870.0437	 0.0000
12871.9724	 0.0000
12873.9011	 0.0000
12875.8297	 0.0000
12877.7584	 0.0000
12879.6871	 0.0000
12881.6158	 0.0000
12883.5444	 0.0000
12885.4731	 0.0000
12887.4018	 0.0000
12889.3305	 0.0000
12891.2591	 0.0000
12893.1878	 0.0000
12895.1165	 0.0000
12897.0452	 0.0000
12898.9738	 0.0000
12900.9025	 0.0000
12902.8312	 0.0000
12904.7599	 0.0000
12906.6885	 0.0000
12908.6172	 0.0000
12910.5459	 0.0000
12912.4745	 0.0000
12914.4032	 0.0000
12916.3319	 0.0000
12918.2606	 0.0000
12920.1892	 0.0000
12922.1179	 0.0000
12924.0466	 0.0000
12925.9753	 0.0000
12927.9039	 0.0000
12929.8326	 0.0000
12931.7613	 0.0000
12933.6900	 0.0000
12935.6186	 0.0000
12937.5473	 0.0000
12939.4760	 0.0000
12941.4047	 0.0000
12943.3333	 0.0000
12945.2620	 0.0000
12947.1907	 0.0000
12949.1194	 0.0000
12951.0480	 0.0000
12952.9767	 0.0000
12954.9054	 0.0000
12956.8341	 0.0000
12958.7627	 0.0000
12960.6914	 0.0000
12962.6201	 0.0000
12964.5488	 0.0000
12966.4774	 0.0000
12968.4061	 0.0000
12970.3348	 0.0000
12972.2635	 0.0000
12974.1921	 0.0000
12976.1208	 0.0000
12978.0495	 0.0000
12979.9781	 0.0000
12981.9068	 0.0000
12983.8355	 0.0000
12985.7642	 0.0000
12987.6928	 0.0000
12989.6215	 0.0000
12991.5502	 0.0000
12993.4789	 0.0000
12995.4075	 0.0000
12997.3362	 0.0000
12999.2649	 0.0000
13001.1936	 0.0000
13003.1222	 0.0000
13005.0509	 0.0000
13006.9796	 0.0000
13008.9083	 0.0000
13010.8369	 0.0000
13012.7656	 0.0000
13014.6943	 0.0000
13016.6230	 0.0000
13018.5516	 0.0000
13020.4803	 0.0000
13022.4090	 0.0000
13024.3377	 0.0000
13026.2663	 0.0000
13028.1950	 0.0000
13030.1237	 0.0000
13032.0524	 0.0000
13033.9810	 0.0000
13035.9097	 0.0000
13037.8384	 0.0000
13039.7671	 0.0000
13041.6957	 0.0000
13043.6244	 0.0000
13045.5531	 0.0000
13047.4818	 0.0000
13049.4104	 0.0000
13051.3391	 0.0000
13053.2678	 0.0000
13055.1964	 0.0000
13057.1251	 0.0000
13059.0538	 0.0000
13060.9825	 0.0000
13062.9111	 0.0000
13064.8398	 0.0000
13066.7685	 0.0000
13068.6972	 0.0000
13070.6258	 0.0000
13072.5545	 0.0000
13074.4832	 0.0000
13076.4119	 0.0000
13078.3405	 0.0000
13080.2692	 0.0000
13082.1979	 0.0000
13084.1266	 0.0000
13086.0552	 0.0000
13087.9839	 0.0000
13089.9126	 0.0000
13091.8413	 0.0000
13093.7699	 0.0000
13095.6986	 0.0000
13097.6273	 0.0000
13099.5560	 0.0000
13101.4846	 0.0000
13103.4133	 0.0000
13105.3420	 0.0000
13107.2707	 0.0000
13109.1993	 0.0000
13111.1280	 0.0000
13113.0567	 0.0000
13114.9854	 0.0000
13116.9140	 0.0000
13118.8427	 0.0000
13120.7714	 0.0000
13122.7000	 0.0000
13124.6287	 0.0000
13126.5574	 0.0000
13128.4861	 0.0000
13130.4147	 0.0000
13132.3434	 0.0000
13134.2721	 0.0000
13136.2008	 0.0000
13138.1294	 0.0000
13140.0581	 0.0000
13141.9868	 0.0000
13143.9155	 0.0000
13145.8441	 0.0000
13147.7728	 0.0000
13149.7015	 0.0000
13151.6302	 0.0000
13153.5588	 0.0000
13155.4875	 0.0000
13157.4162	 0.0000
13159.3449	 0.0000
13161.2735	 0.0000
13163.2022	 0.0000
13165.1309	 0.0000
13167.0596	 0.0000
13168.9882	 0.0000
13170.9169	 0.0000
13172.8456	 0.0000
13174.7743	 0.0000
13176.7029	 0.0000
13178.6316	 0.0000
13180.5603	 0.0000
13182.4890	 0.0000
13184.4176	 0.0000
13186.3463	 0.0000
13188.2750	 0.0000
13190.2036	 0.0000
13192.1323	 0.0000
13194.0610	 0.0000
13195.9897	 0.0000
13197.9183	 0.0000
13199.8470	 0.0000
13201.7757	 0.0000
13203.7044	 0.0000
13205.6330	 0.0000
13207.5617	 0.0000
13209.4904	 0.0000
13211.4191	 0.0000
13213.3477	 0.0000
13215.2764	 0.0000
13217.2051	 0.0000
13219.1338	 0.0000
13221.0624	 0.0000
13222.9911	 0.0000
13224.9198	 0.0000
13226.8485	 0.0000
13228.7771	 0.0000
13230.7058	 0.0000
13232.6345	 0.0000
13234.5632	 0.0000
13236.4918	 0.0000
13238.4205	 0.0000
13240.3492	 0.0000
13242.2779	 0.0000
13244.2065	 0.0000
13246.1352	 0.0000
13248.0639	 0.0000
13249.9926	 0.0000
13251.9212	 0.0000
13253.8499	 0.0000
13255.7786	 0.0000
13257.7073	 0.0000
13259.6359	 0.0000
13261.5646	 0.0000
13263.4933	 0.0000
13265.4219	 0.0000
13267.3506	 0.0000
13269.2793	 0.0000
13271.2080	 0.0000
13273.1366	 0.0000
13275.0653	 0.0000
13276.9940	 0.0000
13278.9227	 0.0000
13280.8513	 0.0000
13282.7800	 0.0000
13284.7087	 0.0000
13286.6374	 0.0000
13288.5660	 0.0000
13290.4947	 0.0000
13292.4234	 0.0000
13294.3521	 0.0000
13296.2807	 0.0000
13298.2094	 0.0000
13300.1381	 0.0000
13302.0668	 0.0000
13303.9954	 0.0000
13305.9241	 0.0000
13307.8528	 0.0000
13309.7815	 0.0000
13311.7101	 0.0000
13313.6388	 0.0000
13315.5675	 0.0000
13317.4962	 0.0000
13319.4248	 0.0000
13321.3535	 0.0000
13323.2822	 0.0000
13325.2109	 0.0000
13327.1395	 0.0000
13329.0682	 0.0000
13330.9969	 0.0000
13332.9255	 0.0000
13334.8542	 0.0000
13336.7829	 0.0000
13338.7116	 0.0000
13340.6402	 0.0000
13342.5689	 0.0000
13344.4976	 0.0000
13346.4263	 0.0000
13348.3549	 0.0000
13350.2836	 0.0000
13352.2123	 0.0000
13354.1410	 0.0000
13356.0696	 0.0000
13357.9983	 0.0000
13359.9270	 0.0000
13361.8557	 0.0000
13363.7843	 0.0000
13365.7130	 0.0000
13367.6417	 0.0000
13369.5704	 0.0000
13371.4990	 0.0000
13373.4277	 0.0000
13375.3564	 0.0000
13377.2851	 0.0000
13379.2137	 0.0000
13381.1424	 0.0000
13383.0711	 0.0000
13384.9998	 0.0000
13386.9284	 0.0000
13388.8571	 0.0000
13390.7858	 0.0000
13392.7145	 0.0000
13394.6431	 0.0000
13396.5718	 0.0000
13398.5005	 0.0000
13400.4292	 0.0000
13402.3578	 0.0000
13404.2865	 0.0000
13406.2152	 0.0000
13408.1438	 0.0000
13410.0725	 0.0000
13412.0012	 0.0000
13413.9299	 0.0000
13415.8585	 0.0000
13417.7872	 0.0000
13419.7159	 0.0000
13421.6446	 0.0000
13423.5732	 0.0000
13425.5019	 0.0000
13427.4306	 0.0000
13429.3593	 0.0000
13431.2879	 0.0000
13433.2166	 0.0000
13435.1453	 0.0000
13437.0740	 0.0000
13439.0026	 0.0000
13440.9313	 0.0000
13442.8600	 0.0000
13444.7887	 0.0000
13446.7173	 0.0000
13448.6460	 0.0000
13450.5747	 0.0000
13452.5034	 0.0000
13454.4320	 0.0000
13456.3607	 0.0000
13458.2894	 0.0000
13460.2181	 0.0000
13462.1467	 0.0000
13464.0754	 0.0000
13466.0041	 0.0000
13467.9328	 0.0000
13469.8614	 0.0000
13471.7901	 0.0000
13473.7188	 0.0000
13475.6474	 0.0000
13477.5761	 0.0000
13479.5048	 0.0000
13481.4335	 0.0000
13483.3621	 0.0000
13485.2908	 0.0000
13487.2195	 0.0000
13489.1482	 0.0000
13491.0768	 0.0000
13493.0055	 0.0000
13494.9342	 0.0000
13496.8629	 0.0000
13498.7915	 0.0000
13500.7202	 0.0000
13502.6489	 0.0000
13504.5776	 0.0000
13506.5062	 0.0000
13508.4349	 0.0000
13510.3636	 0.0000
13512.2923	 0.0000
13514.2209	 0.0000
13516.1496	 0.0000
13518.0783	 0.0000
13520.0070	 0.0000
13521.9356	 0.0000
13523.8643	 0.0000
13525.7930	 0.0000
13527.7217	 0.0000
13529.6503	 0.0000
13531.5790	 0.0000
13533.5077	 0.0000
13535.4364	 0.0000
13537.3650	 0.0000
13539.2937	 0.0000
13541.2224	 0.0000
13543.1510	 0.0000
13545.0797	 0.0000
13547.0084	 0.0000
13548.9371	 0.0000
13550.8657	 0.0000
13552.7944	 0.0000
13554.7231	 0.0000
13556.6518	 0.0000
13558.5804	 0.0000
13560.5091	 0.0000
13562.4378	 0.0000
13564.3665	 0.0000
13566.2951	 0.0000
13568.2238	 0.0000
13570.1525	 0.0000
13572.0812	 0.0000
13574.0098	 0.0000
13575.9385	 0.0000
13577.8672	 0.0000
13579.7959	 0.0000
13581.7245	 0.0000
13583.6532	 0.0000
13585.5819	 0.0000
13587.5106	 0.0000
13589.4392	 0.0000
13591.3679	 0.0000
13593.2966	 0.0000
13595.2253	 0.0000
13597.1539	 0.0000
13599.0826	 0.0000
13601.0113	 0.0000
13602.9400	 0.0000
13604.8686	 0.0000
13606.7973	 0.0000
13608.7260	 0.0000
13610.6547	 0.0000
13612.5833	 0.0000
13614.5120	 0.0000
13616.4407	 0.0000
13618.3693	 0.0000
13620.2980	 0.0000
13622.2267	 0.0000
13624.1554	 0.0000
13626.0840	 0.0000
13628.0127	 0.0000
13629.9414	 0.0000
13631.8701	 0.0000
13633.7987	 0.0000
13635.7274	 0.0000
13637.6561	 0.0000
13639.5848	 0.0000
13641.5134	 0.0000
13643.4421	 0.0000
13645.3708	 0.0000
13647.2995	 0.0000
13649.2281	 0.0000
13651.1568	 0.0000
13653.0855	 0.0000
13655.0142	 0.0000
13656.9428	 0.0000
13658.8715	 0.0000
13660.8002	 0.0000
13662.7289	 0.0000
13664.6575	 0.0000
13666.5862	 0.0000
13668.5149	 0.0000
13670.4436	 0.0000
13672.3722	 0.0000
13674.3009	 0.0000
13676.2296	 0.0000
13678.1583	 0.0000
13680.0869	 0.0000
13682.0156	 0.0000
13683.9443	 0.0000
13685.8729	 0.0000
13687.8016	 0.0000
13689.7303	 0.0000
13691.6590	 0.0000
13693.5876	 0.0000
13695.5163	 0.0000
13697.4450	 0.0000
13699.3737	 0.0000
13701.3023	 0.0000
13703.2310	 0.0000
13705.1597	 0.0000
13707.0884	 0.0000
13709.0170	 0.0000
13710.9457	 0.0000
13712.8744	 0.0000
13714.8031	 0.0000
13716.7317	 0.0000
13718.6604	 0.0000
13720.5891	 0.0000
13722.5178	 0.0000
13724.4464	 0.0000
13726.3751	 0.0000
13728.3038	 0.0000
13730.2325	 0.0000
13732.1611	 0.0000
13734.0898	 0.0000
13736.0185	 0.0000
13737.9472	 0.0000
13739.8758	 0.0000
13741.8045	 0.0000
13743.7332	 0.0000
13745.6619	 0.0000
13747.5905	 0.0000
13749.5192	 0.0000
13751.4479	 0.0000
13753.3766	 0.0000
13755.3052	 0.0000
13757.2339	 0.0000
13759.1626	 0.0000
13761.0912	 0.0000
13763.0199	 0.0000
13764.9486	 0.0000
13766.8773	 0.0000
13768.8059	 0.0000
13770.7346	 0.0000
13772.6633	 0.0000
13774.5920	 0.0000
13776.5206	 0.0000
13778.4493	 0.0000
13780.3780	 0.0000
13782.3067	 0.0000
13784.2353	 0.0000
13786.1640	 0.0000
13788.0927	 0.0000
13790.0214	 0.0000
13791.9500	 0.0000
13793.8787	 0.0000
13795.8074	 0.0000
13797.7361	 0.0000
13799.6647	 0.0000
13801.5934	 0.0000
13803.5221	 0.0000
13805.4508	 0.0000
13807.3794	 0.0000
13809.3081	 0.0000
13811.2368	 0.0000
13813.1655	 0.0000
13815.0941	 0.0000
13817.0228	 0.0000
13818.9515	 0.0000
13820.8802	 0.0000
13822.8088	 0.0000
13824.7375	 0.0000
13826.6662	 0.0000
13828.5948	 0.0000
13830.5235	 0.0000
13832.4522	 0.0000
13834.3809	 0.0000
13836.3095	 0.0000
13838.2382	 0.0000
13840.1669	 0.0000
13842.0956	 0.0000
13844.0242	 0.0000
13845.9529	 0.0000
13847.8816	 0.0000
13849.8103	 0.0000
13851.7389	 0.0000
13853.6676	 0.0000
13855.5963	 0.0000
13857.5250	 0.0000
13859.4536	 0.0000
13861.3823	 0.0000
13863.3110	 0.0000
13865.2397	 0.0000
13867.1683	 0.0000
13869.0970	 0.0000
13871.0257	 0.0000
13872.9544	 0.0000
13874.8830	 0.0000
13876.8117	 0.0000
13878.7404	 0.0000
13880.6691	 0.0000
13882.5977	 0.0000
13884.5264	 0.0000
13886.4551	 0.0000
13888.3838	 0.0000
13890.3124	 0.0000
13892.2411	 0.0000
13894.1698	 0.0000
13896.0984	 0.0000
13898.0271	 0.0000
13899.9558	 0.0000
13901.8845	 0.0000
13903.8131	 0.0000
13905.7418	 0.0000
13907.6705	 0.0000
13909.5992	 0.0000
13911.5278	 0.0000
13913.4565	 0.0000
13915.3852	 0.0000
13917.3139	 0.0000
13919.2425	 0.0000
13921.1712	 0.0000
13923.0999	 0.0000
13925.0286	 0.0000
13926.9572	 0.0000
13928.8859	 0.0000
13930.8146	 0.0000
13932.7433	 0.0000
13934.6719	 0.0000
13936.6006	 0.0000
13938.5293	 0.0000
13940.4580	 0.0000
13942.3866	 0.0000
13944.3153	 0.0000
13946.2440	 0.0000
13948.1727	 0.0000
13950.1013	 0.0000
13952.0300	 0.0000
13953.9587	 0.0000
13955.8874	 0.0000
13957.8160	 0.0000
13959.7447	 0.0000
13961.6734	 0.0000
13963.6021	 0.0000
13965.5307	 0.0000
13967.4594	 0.0000
13969.3881	 0.0000
13971.3167	 0.0000
13973.2454	 0.0000
13975.1741	 0.0000
13977.1028	 0.0000
13979.0314	 0.0000
13980.9601	 0.0000
13982.8888	 0.0000
13984.8175	 0.0000
13986.7461	 0.0000
13988.6748	 0.0000
13990.6035	 0.0000
13992.5322	 0.0000
13994.4608	 0.0000
13996.3895	 0.0000
13998.3182	 0.0000
14000.2469	 0.0000
14002.1755	 0.0000
14004.1042	 0.0000
14006.0329	 0.0000
14007.9616	 0.0000
14009.8902	 0.0000
14011.8189	 0.0000
14013.7476	 0.0000
14015.6763	 0.0000
14017.6049	 0.0000
14019.5336	 0.0000
14021.4623	 0.0000
14023.3910	 0.0000
14025.3196	 0.0000
14027.2483	 0.0000
14029.1770	 0.0000
14031.1057	 0.0000
14033.0343	 0.0000
14034.9630	 0.0000
14036.8917	 0.0000
14038.8203	 0.0000
14040.7490	 0.0000
14042.6777	 0.0000
14044.6064	 0.0000
14046.5350	 0.0000
14048.4637	 0.0000
14050.3924	 0.0000
14052.3211	 0.0000
14054.2497	 0.0000
14056.1784	 0.0000
14058.1071	 0.0000
14060.0358	 0.0000
14061.9644	 0.0000
14063.8931	 0.0000
14065.8218	 0.0000
14067.7505	 0.0000
14069.6791	 0.0000
14071.6078	 0.0000
14073.5365	 0.0000
14075.4652	 0.0000
14077.3938	 0.0000
14079.3225	 0.0000
14081.2512	 0.0000
14083.1799	 0.0000
14085.1085	 0.0000
14087.0372	 0.0000
14088.9659	 0.0000
14090.8946	 0.0000
14092.8232	 0.0000
14094.7519	 0.0000
14096.6806	 0.0000
14098.6093	 0.0000
14100.5379	 0.0000
14102.4666	 0.0000
14104.3953	 0.0000
14106.3240	 0.0000
14108.2526	 0.0000
14110.1813	 0.0000
14112.1100	 0.0000
14114.0386	 0.0000
14115.9673	 0.0000
14117.8960	 0.0000
14119.8247	 0.0000
14121.7533	 0.0000
14123.6820	 0.0000
14125.6107	 0.0000
14127.5394	 0.0000
14129.4680	 0.0000
14131.3967	 0.0000
14133.3254	 0.0000
14135.2541	 0.0000
14137.1827	 0.0000
14139.1114	 0.0000
14141.0401	 0.0000
14142.9688	 0.0000
14144.8974	 0.0000
14146.8261	 0.0000
14148.7548	 0.0000
14150.6835	 0.0000
14152.6121	 0.0000
14154.5408	 0.0000
14156.4695	 0.0000
14158.3982	 0.0000
14160.3268	 0.0000
14162.2555	 0.0000
14164.1842	 0.0000
14166.1129	 0.0000
14168.0415	 0.0000
14169.9702	 0.0000
14171.8989	 0.0000
14173.8276	 0.0000
14175.7562	 0.0000
14177.6849	 0.0000
14179.6136	 0.0000
14181.5422	 0.0000
14183.4709	 0.0000
14185.3996	 0.0000
14187.3283	 0.0000
14189.2569	 0.0000
14191.1856	 0.0000
14193.1143	 0.0000
14195.0430	 0.0000
14196.9716	 0.0000
14198.9003	 0.0000
14200.8290	 0.0000
14202.7577	 0.0000
14204.6863	 0.0000
14206.6150	 0.0000
14208.5437	 0.0000
14210.4724	 0.0000
14212.4010	 0.0000
14214.3297	 0.0000
14216.2584	 0.0000
14218.1871	 0.0000
14220.1157	 0.0000
14222.0444	 0.0000
14223.9731	 0.0000
14225.9018	 0.0000
14227.8304	 0.0000
14229.7591	 0.0000
14231.6878	 0.0000
14233.6165	 0.0000
14235.5451	 0.0000
14237.4738	 0.0000
14239.4025	 0.0000
14241.3312	 0.0000
14243.2598	 0.0000
14245.1885	 0.0000
14247.1172	 0.0000
14249.0458	 0.0000
14250.9745	 0.0000
14252.9032	 0.0000
14254.8319	 0.0000
14256.7605	 0.0000
14258.6892	 0.0000
14260.6179	 0.0000
14262.5466	 0.0000
14264.4752	 0.0000
14266.4039	 0.0000
14268.3326	 0.0000
14270.2613	 0.0000
14272.1899	 0.0000
14274.1186	 0.0000
14276.0473	 0.0000
14277.9760	 0.0000
14279.9046	 0.0000
14281.8333	 0.0000
14283.7620	 0.0000
14285.6907	 0.0000
14287.6193	 0.0000
14289.5480	 0.0000
14291.4767	 0.0000
14293.4054	 0.0000
14295.3340	 0.0000
14297.2627	 0.0000
14299.1914	 0.0000
14301.1201	 0.0000
14303.0487	 0.0000
14304.9774	 0.0000
14306.9061	 0.0000
14308.8348	 0.0000
14310.7634	 0.0000
14312.6921	 0.0000
14314.6208	 0.0000
14316.5495	 0.0000
14318.4781	 0.0000
14320.4068	 0.0000
14322.3355	 0.0000
14324.2641	 0.0000
14326.1928	 0.0000
14328.1215	 0.0000
14330.0502	 0.0000
14331.9788	 0.0000
14333.9075	 0.0000
14335.8362	 0.0000
14337.7649	 0.0000
14339.6935	 0.0000
14341.6222	 0.0000
14343.5509	 0.0000
14345.4796	 0.0000
14347.4082	 0.0000
14349.3369	 0.0000
14351.2656	 0.0000
14353.1943	 0.0000
14355.1229	 0.0000
14357.0516	 0.0000
14358.9803	 0.0000
14360.9090	 0.0000
14362.8376	 0.0000
14364.7663	 0.0000
14366.6950	 0.0000
14368.6237	 0.0000
14370.5523	 0.0000
14372.4810	 0.0000
14374.4097	 0.0000
14376.3384	 0.0000
14378.2670	 0.0000
14380.1957	 0.0000
14382.1244	 0.0000
14384.0531	 0.0000
14385.9817	 0.0000
14387.9104	 0.0000
14389.8391	 0.0000
14391.7677	 0.0000
14393.6964	 0.0000
14395.6251	 0.0000
14397.5538	 0.0000
14399.4824	 0.0000
14401.4111	 0.0000
14403.3398	 0.0000
14405.2685	 0.0000
14407.1971	 0.0000
14409.1258	 0.0000
14411.0545	 0.0000
14412.9832	 0.0000
14414.9118	 0.0000
14416.8405	 0.0000
14418.7692	 0.0000
14420.6979	 0.0000
14422.6265	 0.0000
14424.5552	 0.0000
14426.4839	 0.0000
14428.4126	 0.0000
14430.3412	 0.0000
14432.2699	 0.0000
14434.1986	 0.0000
14436.1273	 0.0000
14438.0559	 0.0000
14439.9846	 0.0000
14441.9133	 0.0000
14443.8420	 0.0000
14445.7706	 0.0000
14447.6993	 0.0000
14449.6280	 0.0000
14451.5567	 0.0000
14453.4853	 0.0000
14455.4140	 0.0000
14457.3427	 0.0000
14459.2714	 0.0000
14461.2000	 0.0000
14463.1287	 0.0000
14465.0574	 0.0000
14466.9860	 0.0000
14468.9147	 0.0000
14470.8434	 0.0000
14472.7721	 0.0000
14474.7007	 0.0000
14476.6294	 0.0000
14478.5581	 0.0000
14480.4868	 0.0000
14482.4154	 0.0000
14484.3441	 0.0000
14486.2728	 0.0000
14488.2015	 0.0000
14490.1301	 0.0000
14492.0588	 0.0000
14493.9875	 0.0000
14495.9162	 0.0000
14497.8448	 0.0000
14499.7735	 0.0000
14501.7022	 0.0000
14503.6309	 0.0000
14505.5595	 0.0000
14507.4882	 0.0000
14509.4169	 0.0000
14511.3456	 0.0000
14513.2742	 0.0000
14515.2029	 0.0000
14517.1316	 0.0000
14519.0603	 0.0000
14520.9889	 0.0000
14522.9176	 0.0000
14524.8463	 0.0000
14526.7750	 0.0000
14528.7036	 0.0000
14530.6323	 0.0000
14532.5610	 0.0000
14534.4896	 0.0000
14536.4183	 0.0000
14538.3470	 0.0000
14540.2757	 0.0000
14542.2043	 0.0000
14544.1330	 0.0000
14546.0617	 0.0000
14547.9904	 0.0000
14549.9190	 0.0000
14551.8477	 0.0000
14553.7764	 0.0000
14555.7051	 0.0000
14557.6337	 0.0000
14559.5624	 0.0000
14561.4911	 0.0000
14563.4198	 0.0000
14565.3484	 0.0000
14567.2771	 0.0000
14569.2058	 0.0000
14571.1345	 0.0000
14573.0631	 0.0000
14574.9918	 0.0000
14576.9205	 0.0000
14578.8492	 0.0000
14580.7778	 0.0000
14582.7065	 0.0000
14584.6352	 0.0000
14586.5639	 0.0000
14588.4925	 0.0000
14590.4212	 0.0000
14592.3499	 0.0000
14594.2786	 0.0000
14596.2072	 0.0000
14598.1359	 0.0000
14600.0646	 0.0000
14601.9932	 0.0000
14603.9219	 0.0000
14605.8506	 0.0000
14607.7793	 0.0000
14609.7079	 0.0000
14611.6366	 0.0000
14613.5653	 0.0000
14615.4940	 0.0000
14617.4226	 0.0000
14619.3513	 0.0000
14621.2800	 0.0000
14623.2087	 0.0000
14625.1373	 0.0000
14627.0660	 0.0000
14628.9947	 0.0000
14630.9234	 0.0000
14632.8520	 0.0000
14634.7807	 0.0000
14636.7094	 0.0000
14638.6381	 0.0000
14640.5667	 0.0000
14642.4954	 0.0000
14644.4241	 0.0000
14646.3528	 0.0000
14648.2814	 0.0000
14650.2101	 0.0000
14652.1388	 0.0000
14654.0675	 0.0000
14655.9961	 0.0000
14657.9248	 0.0000
14659.8535	 0.0000
14661.7822	 0.0000
14663.7108	 0.0000
14665.6395	 0.0000
14667.5682	 0.0000
14669.4969	 0.0000
14671.4255	 0.0000
14673.3542	 0.0000
14675.2829	 0.0000
14677.2115	 0.0000
14679.1402	 0.0000
14681.0689	 0.0000
14682.9976	 0.0000
14684.9262	 0.0000
14686.8549	 0.0000
14688.7836	 0.0000
14690.7123	 0.0000
14692.6409	 0.0000
14694.5696	 0.0000
14696.4983	 0.0000
14698.4270	 0.0000
14700.3556	 0.0000
14702.2843	 0.0000
14704.2130	 0.0000
14706.1417	 0.0000
14708.0703	 0.0000
14709.9990	 0.0000
14711.9277	 0.0000
14713.8564	 0.0000
14715.7850	 0.0000
14717.7137	 0.0000
14719.6424	 0.0000
14721.5711	 0.0000
14723.4997	 0.0000
14725.4284	 0.0000
14727.3571	 0.0000
14729.2858	 0.0000
14731.2144	 0.0000
14733.1431	 0.0000
14735.0718	 0.0000
14737.0005	 0.0000
14738.9291	 0.0000
14740.8578	 0.0000
14742.7865	 0.0000
14744.7151	 0.0000
14746.6438	 0.0000
14748.5725	 0.0000
14750.5012	 0.0000
14752.4298	 0.0000
14754.3585	 0.0000
14756.2872	 0.0000
14758.2159	 0.0000
14760.1445	 0.0000
14762.0732	 0.0000
14764.0019	 0.0000
14765.9306	 0.0000
14767.8592	 0.0000
14769.7879	 0.0000
14771.7166	 0.0000
14773.6453	 0.0000
14775.5739	 0.0000
14777.5026	 0.0000
14779.4313	 0.0000
14781.3600	 0.0000
14783.2886	 0.0000
14785.2173	 0.0000
14787.1460	 0.0000
14789.0747	 0.0000
14791.0033	 0.0000
14792.9320	 0.0000
14794.8607	 0.0000
14796.7894	 0.0000
14798.7180	 0.0000
14800.6467	 0.0000
14802.5754	 0.0000
14804.5041	 0.0000
14806.4327	 0.0000
14808.3614	 0.0000
14810.2901	 0.0000
14812.2188	 0.0000
14814.1474	 0.0000
14816.0761	 0.0000
14818.0048	 0.0000
14819.9334	 0.0000
14821.8621	 0.0000
14823.7908	 0.0000
14825.7195	 0.0000
14827.6481	 0.0000
14829.5768	 0.0000
14831.5055	 0.0000
14833.4342	 0.0000
14835.3628	 0.0000
14837.2915	 0.0000
14839.2202	 0.0000
14841.1489	 0.0000
14843.0775	 0.0000
14845.0062	 0.0000
14846.9349	 0.0000
14848.8636	 0.0000
14850.7922	 0.0000
14852.7209	 0.0000
14854.6496	 0.0000
14856.5783	 0.0000
14858.5069	 0.0000
14860.4356	 0.0000
14862.3643	 0.0000
14864.2930	 0.0000
14866.2216	 0.0000
14868.1503	 0.0000
14870.0790	 0.0000
14872.0077	 0.0000
14873.9363	 0.0000
14875.8650	 0.0000
14877.7937	 0.0000
14879.7224	 0.0000
14881.6510	 0.0000
14883.5797	 0.0000
14885.5084	 0.0000
14887.4370	 0.0000
14889.3657	 0.0000
14891.2944	 0.0000
14893.2231	 0.0000
14895.1517	 0.0000
14897.0804	 0.0000
14899.0091	 0.0000
14900.9378	 0.0000
14902.8664	 0.0000
14904.7951	 0.0000
14906.7238	 0.0000
14908.6525	 0.0000
14910.5811	 0.0000
14912.5098	 0.0000
14914.4385	 0.0000
14916.3672	 0.0000
14918.2958	 0.0000
14920.2245	 0.0000
14922.1532	 0.0000
14924.0819	 0.0000
14926.0105	 0.0000
14927.9392	 0.0000
14929.8679	 0.0000
14931.7966	 0.0000
14933.7252	 0.0000
14935.6539	 0.0000
14937.5826	 0.0000
14939.5113	 0.0000
14941.4399	 0.0000
14943.3686	 0.0000
14945.2973	 0.0000
14947.2260	 0.0000
14949.1546	 0.0000
14951.0833	 0.0000
14953.0120	 0.0000
14954.9406	 0.0000
14956.8693	 0.0000
14958.7980	 0.0000
14960.7267	 0.0000
14962.6553	 0.0000
14964.5840	 0.0000
14966.5127	 0.0000
14968.4414	 0.0000
14970.3700	 0.0000
14972.2987	 0.0000
14974.2274	 0.0000
14976.1561	 0.0000
14978.0847	 0.0000
14980.0134	 0.0000
14981.9421	 0.0000
14983.8708	 0.0000
14985.7994	 0.0000
14987.7281	 0.0000
14989.6568	 0.0000
14991.5855	 0.0000
14993.5141	 0.0000
14995.4428	 0.0000
14997.3715	 0.0000
14999.3002	 0.0000
15001.2288	 0.0000
15003.1575	 0.0000
15005.0862	 0.0000
15007.0149	 0.0000
15008.9435	 0.0000
15010.8722	 0.0000
15012.8009	 0.0000
15014.7296	 0.0000
15016.6582	 0.0000
15018.5869	 0.0000
15020.5156	 0.0000
15022.4443	 0.0000
15024.3729	 0.0000
15026.3016	 0.0000
15028.2303	 0.0000
15030.1589	 0.0000
15032.0876	 0.0000
15034.0163	 0.0000
15035.9450	 0.0000
15037.8736	 0.0000
15039.8023	 0.0000
15041.7310	 0.0000
15043.6597	 0.0000
15045.5883	 0.0000
15047.5170	 0.0000
15049.4457	 0.0000
15051.3744	 0.0000
15053.3030	 0.0000
15055.2317	 0.0000
15057.1604	 0.0000
15059.0891	 0.0000
15061.0177	 0.0000
15062.9464	 0.0000
15064.8751	 0.0000
15066.8038	 0.0000
15068.7324	 0.0000
15070.6611	 0.0000
15072.5898	 0.0000
15074.5185	 0.0000
15076.4471	 0.0000
15078.3758	 0.0000
15080.3045	 0.0000
15082.2332	 0.0000
15084.1618	 0.0000
15086.0905	 0.0000
15088.0192	 0.0000
15089.9479	 0.0000
15091.8765	 0.0000
15093.8052	 0.0000
15095.7339	 0.0000
15097.6625	 0.0000
15099.5912	 0.0000
15101.5199	 0.0000
15103.4486	 0.0000
15105.3772	 0.0000
15107.3059	 0.0000
15109.2346	 0.0000
15111.1633	 0.0000
15113.0919	 0.0000
15115.0206	 0.0000
15116.9493	 0.0000
15118.8780	 0.0000
15120.8066	 0.0000
15122.7353	 0.0000
15124.6640	 0.0000
15126.5927	 0.0000
15128.5213	 0.0000
15130.4500	 0.0000
15132.3787	 0.0000
15134.3074	 0.0000
15136.2360	 0.0000
15138.1647	 0.0000
15140.0934	 0.0000
15142.0221	 0.0000
15143.9507	 0.0000
15145.8794	 0.0000
15147.8081	 0.0000
15149.7368	 0.0000
15151.6654	 0.0000
15153.5941	 0.0000
15155.5228	 0.0000
15157.4515	 0.0000
15159.3801	 0.0000
15161.3088	 0.0000
15163.2375	 0.0000
15165.1661	 0.0000
15167.0948	 0.0000
15169.0235	 0.0000
15170.9522	 0.0000
15172.8808	 0.0000
15174.8095	 0.0000
15176.7382	 0.0000
15178.6669	 0.0000
15180.5955	 0.0000
15182.5242	 0.0000
15184.4529	 0.0000
15186.3816	 0.0000
15188.3102	 0.0000
15190.2389	 0.0000
15192.1676	 0.0000
15194.0963	 0.0000
15196.0249	 0.0000
15197.9536	 0.0000
15199.8823	 0.0000
15201.8110	 0.0000
15203.7396	 0.0000
15205.6683	 0.0000
15207.5970	 0.0000
15209.5257	 0.0000
15211.4543	 0.0000
15213.3830	 0.0000
15215.3117	 0.0000
15217.2404	 0.0000
15219.1690	 0.0000
15221.0977	 0.0000
15223.0264	 0.0000
15224.9551	 0.0000
15226.8837	 0.0000
15228.8124	 0.0000
15230.7411	 0.0000
15232.6698	 0.0000
15234.5984	 0.0000
15236.5271	 0.0000
15238.4558	 0.0000
15240.3844	 0.0000
15242.3131	 0.0000
15244.2418	 0.0000
15246.1705	 0.0000
15248.0991	 0.0000
15250.0278	 0.0000
15251.9565	 0.0000
15253.8852	 0.0000
15255.8138	 0.0000
15257.7425	 0.0000
15259.6712	 0.0000
15261.5999	 0.0000
15263.5285	 0.0000
15265.4572	 0.0000
15267.3859	 0.0000
15269.3146	 0.0000
15271.2432	 0.0000
15273.1719	 0.0000
15275.1006	 0.0000
15277.0293	 0.0000
15278.9579	 0.0000
15280.8866	 0.0000
15282.8153	 0.0000
15284.7440	 0.0000
15286.6726	 0.0000
15288.6013	 0.0000
15290.5300	 0.0000
15292.4587	 0.0000
15294.3873	 0.0000
15296.3160	 0.0000
15298.2447	 0.0000
15300.1734	 0.0000
15302.1020	 0.0000
15304.0307	 0.0000
15305.9594	 0.0000
15307.8880	 0.0000
15309.8167	 0.0000
15311.7454	 0.0000
15313.6741	 0.0000
15315.6027	 0.0000
15317.5314	 0.0000
15319.4601	 0.0000
15321.3888	 0.0000
15323.3174	 0.0000
15325.2461	 0.0000
15327.1748	 0.0000
15329.1035	 0.0000
15331.0321	 0.0000
15332.9608	 0.0000
15334.8895	 0.0000
15336.8182	 0.0000
15338.7468	 0.0000
15340.6755	 0.0000
15342.6042	 0.0000
15344.5329	 0.0000
15346.4615	 0.0000
15348.3902	 0.0000
15350.3189	 0.0000
15352.2476	 0.0000
15354.1762	 0.0000
15356.1049	 0.0000
15358.0336	 0.0000
15359.9623	 0.0000
15361.8909	 0.0000
15363.8196	 0.0000
15365.7483	 0.0000
15367.6770	 0.0000
15369.6056	 0.0000
15371.5343	 0.0000
15373.4630	 0.0000
15375.3917	 0.0000
15377.3203	 0.0000
15379.2490	 0.0000
15381.1777	 0.0000
15383.1063	 0.0000
15385.0350	 0.0000
15386.9637	 0.0000
15388.8924	 0.0000
15390.8210	 0.0000
15392.7497	 0.0000
15394.6784	 0.0000
15396.6071	 0.0000
15398.5357	 0.0000
15400.4644	 0.0000
15402.3931	 0.0000
15404.3218	 0.0000
15406.2504	 0.0000
15408.1791	 0.0000
15410.1078	 0.0000
15412.0365	 0.0000
15413.9651	 0.0000
15415.8938	 0.0000
15417.8225	 0.0000
15419.7512	 0.0000
15421.6798	 0.0000
15423.6085	 0.0000
15425.5372	 0.0000
15427.4659	 0.0000
15429.3945	 0.0000
15431.3232	 0.0000
15433.2519	 0.0000
15435.1806	 0.0000
15437.1092	 0.0000
15439.0379	 0.0000
15440.9666	 0.0000
15442.8953	 0.0000
15444.8239	 0.0000
15446.7526	 0.0000
15448.6813	 0.0000
15450.6099	 0.0000
15452.5386	 0.0000
15454.4673	 0.0000
15456.3960	 0.0000
15458.3246	 0.0000
15460.2533	 0.0000
15462.1820	 0.0000
15464.1107	 0.0000
15466.0393	 0.0000
15467.9680	 0.0000
15469.8967	 0.0000
15471.8254	 0.0000
15473.7540	 0.0000
15475.6827	 0.0000
15477.6114	 0.0000
15479.5401	 0.0000
15481.4687	 0.0000
15483.3974	 0.0000
15485.3261	 0.0000
15487.2548	 0.0000
15489.1834	 0.0000
15491.1121	 0.0000
15493.0408	 0.0000
15494.9695	 0.0000
15496.8981	 0.0000
15498.8268	 0.0000
15500.7555	 0.0000
15502.6842	 0.0000
15504.6128	 0.0000
15506.5415	 0.0000
15508.4702	 0.0000
15510.3989	 0.0000
15512.3275	 0.0000
15514.2562	 0.0000
15516.1849	 0.0000
15518.1135	 0.0000
15520.0422	 0.0000
15521.9709	 0.0000
15523.8996	 0.0000
15525.8282	 0.0000
15527.7569	 0.0000
15529.6856	 0.0000
15531.6143	 0.0000
15533.5429	 0.0000
15535.4716	 0.0000
15537.4003	 0.0000
15539.3290	 0.0000
15541.2576	 0.0000
15543.1863	 0.0000
15545.1150	 0.0000
15547.0437	 0.0000
15548.9723	 0.0000
15550.9010	 0.0000
15552.8297	 0.0000
15554.7584	 0.0000
15556.6870	 0.0000
15558.6157	 0.0000
15560.5444	 0.0000
15562.4731	 0.0000
15564.4017	 0.0000
15566.3304	 0.0000
15568.2591	 0.0000
15570.1878	 0.0000
15572.1164	 0.0000
15574.0451	 0.0000
15575.9738	 0.0000
15577.9025	 0.0000
15579.8311	 0.0000
15581.7598	 0.0000
15583.6885	 0.0000
15585.6172	 0.0000
15587.5458	 0.0000
15589.4745	 0.0000
15591.4032	 0.0000
15593.3318	 0.0000
15595.2605	 0.0000
15597.1892	 0.0000
15599.1179	 0.0000
15601.0465	 0.0000
15602.9752	 0.0000
15604.9039	 0.0000
15606.8326	 0.0000
15608.7612	 0.0000
15610.6899	 0.0000
15612.6186	 0.0000
15614.5473	 0.0000
15616.4759	 0.0000
15618.4046	 0.0000
15620.3333	 0.0000
15622.2620	 0.0000
15624.1906	 0.0000
15626.1193	 0.0000
15628.0480	 0.0000
15629.9767	 0.0000
15631.9053	 0.0000
15633.8340	 0.0000
15635.7627	 0.0000
15637.6914	 0.0000
15639.6200	 0.0000
15641.5487	 0.0000
15643.4774	 0.0000
15645.4061	 0.0000
15647.3347	 0.0000
15649.2634	 0.0000
15651.1921	 0.0000
15653.1208	 0.0000
15655.0494	 0.0000
15656.9781	 0.0000
15658.9068	 0.0000
15660.8354	 0.0000
15662.7641	 0.0000
15664.6928	 0.0000
15666.6215	 0.0000
15668.5501	 0.0000
15670.4788	 0.0000
15672.4075	 0.0000
15674.3362	 0.0000
15676.2648	 0.0000
15678.1935	 0.0000
15680.1222	 0.0000
15682.0509	 0.0000
15683.9795	 0.0000
15685.9082	 0.0000
15687.8369	 0.0000
15689.7656	 0.0000
15691.6942	 0.0000
15693.6229	 0.0000
15695.5516	 0.0000
15697.4803	 0.0000
15699.4089	 0.0000
15701.3376	 0.0000
15703.2663	 0.0000
15705.1950	 0.0000
15707.1236	 0.0000
15709.0523	 0.0000
15710.9810	 0.0000
15712.9097	 0.0000
15714.8383	 0.0000
15716.7670	 0.0000
15718.6957	 0.0000
15720.6244	 0.0000
15722.5530	 0.0000
15724.4817	 0.0000
15726.4104	 0.0000
15728.3391	 0.0000
15730.2677	 0.0000
15732.1964	 0.0000
15734.1251	 0.0000
15736.0537	 0.0000
15737.9824	 0.0000
15739.9111	 0.0000
15741.8398	 0.0000
15743.7684	 0.0000
15745.6971	 0.0000
15747.6258	 0.0000
15749.5545	 0.0000
15751.4831	 0.0000
15753.4118	 0.0000
15755.3405	 0.0000
15757.2692	 0.0000
15759.1978	 0.0000
15761.1265	 0.0000
15763.0552	 0.0000
15764.9839	 0.0000
15766.9125	 0.0000
15768.8412	 0.0000
15770.7699	 0.0000
15772.6986	 0.0000
15774.6272	 0.0000
15776.5559	 0.0000
15778.4846	 0.0000
15780.4133	 0.0000
15782.3419	 0.0000
15784.2706	 0.0000
15786.1993	 0.0000
15788.1280	 0.0000
15790.0566	 0.0000
15791.9853	 0.0000
15793.9140	 0.0000
15795.8427	 0.0000
15797.7713	 0.0000
Filename=11_04__22 ATR  reference 1350
ObjectID=137349F1-1FC6-4B5A-8889-B3398C301F4E
Operator=VU
Department=FALW
