DATATYPE	 IR Spectrum
XYUNITS	 Wavenumber;Absorbance
DECIMALSYMBOL	 .
599.8177	 0.2387
601.7464	 0.2372
603.6751	 0.2359
605.6037	 0.2358
607.5324	 0.2342
609.4611	 0.2304
611.3898	 0.2283
613.3184	 0.2277
615.2471	 0.2254
617.1758	 0.2223
619.1045	 0.2202
621.0331	 0.2185
622.9618	 0.2168
624.8905	 0.2148
626.8192	 0.2134
628.7478	 0.2127
630.6765	 0.2111
632.6052	 0.2091
634.5339	 0.2080
636.4625	 0.2073
638.3912	 0.2064
640.3199	 0.2052
642.2485	 0.2038
644.1772	 0.2025
646.1059	 0.2017
648.0346	 0.2006
649.9632	 0.1992
651.8919	 0.1983
653.8206	 0.1974
655.7493	 0.1968
657.6779	 0.1966
659.6066	 0.1964
661.5353	 0.1958
663.4640	 0.1946
665.3926	 0.1936
667.3213	 0.1931
669.2500	 0.1905
671.1787	 0.1876
673.1073	 0.1850
675.0360	 0.1822
676.9647	 0.1794
678.8934	 0.1767
680.8220	 0.1746
682.7507	 0.1728
684.6794	 0.1712
686.6081	 0.1699
688.5367	 0.1687
690.4654	 0.1676
692.3941	 0.1666
694.3228	 0.1656
696.2514	 0.1646
698.1801	 0.1635
700.1088	 0.1626
702.0375	 0.1616
703.9661	 0.1604
705.8948	 0.1592
707.8235	 0.1579
709.7521	 0.1565
711.6808	 0.1552
713.6095	 0.1539
715.5382	 0.1524
717.4668	 0.1510
719.3955	 0.1496
721.3242	 0.1478
723.2529	 0.1460
725.1815	 0.1442
727.1102	 0.1425
729.0389	 0.1406
730.9676	 0.1389
732.8962	 0.1373
734.8249	 0.1359
736.7536	 0.1346
738.6823	 0.1334
740.6109	 0.1321
742.5396	 0.1309
744.4683	 0.1297
746.3970	 0.1286
748.3256	 0.1274
750.2543	 0.1261
752.1830	 0.1249
754.1117	 0.1236
756.0403	 0.1224
757.9690	 0.1212
759.8977	 0.1200
761.8264	 0.1186
763.7550	 0.1173
765.6837	 0.1161
767.6124	 0.1149
769.5411	 0.1137
771.4697	 0.1125
773.3984	 0.1114
775.3271	 0.1103
777.2557	 0.1093
779.1844	 0.1083
781.1131	 0.1073
783.0418	 0.1062
784.9704	 0.1050
786.8991	 0.1039
788.8278	 0.1028
790.7565	 0.1018
792.6851	 0.1009
794.6138	 0.1000
796.5425	 0.0991
798.4712	 0.0983
800.3998	 0.0973
802.3285	 0.0964
804.2572	 0.0957
806.1859	 0.0949
808.1145	 0.0941
810.0432	 0.0934
811.9719	 0.0926
813.9006	 0.0919
815.8292	 0.0912
817.7579	 0.0905
819.6866	 0.0898
821.6153	 0.0892
823.5439	 0.0885
825.4726	 0.0878
827.4013	 0.0871
829.3300	 0.0864
831.2586	 0.0857
833.1873	 0.0848
835.1160	 0.0837
837.0447	 0.0825
838.9733	 0.0814
840.9020	 0.0802
842.8307	 0.0790
844.7594	 0.0780
846.6880	 0.0770
848.6167	 0.0761
850.5454	 0.0751
852.4740	 0.0742
854.4027	 0.0733
856.3314	 0.0725
858.2601	 0.0717
860.1887	 0.0711
862.1174	 0.0706
864.0461	 0.0703
865.9748	 0.0701
867.9034	 0.0700
869.8321	 0.0699
871.7608	 0.0698
873.6895	 0.0695
875.6181	 0.0690
877.5468	 0.0686
879.4755	 0.0682
881.4042	 0.0678
883.3328	 0.0677
885.2615	 0.0676
887.1902	 0.0678
889.1189	 0.0683
891.0475	 0.0690
892.9762	 0.0697
894.9049	 0.0704
896.8336	 0.0706
898.7622	 0.0703
900.6909	 0.0692
902.6196	 0.0676
904.5483	 0.0658
906.4769	 0.0641
908.4056	 0.0627
910.3343	 0.0617
912.2630	 0.0610
914.1916	 0.0603
916.1203	 0.0599
918.0490	 0.0595
919.9776	 0.0591
921.9063	 0.0588
923.8350	 0.0586
925.7637	 0.0585
927.6923	 0.0583
929.6210	 0.0581
931.5497	 0.0579
933.4784	 0.0577
935.4070	 0.0576
937.3357	 0.0576
939.2644	 0.0577
941.1931	 0.0579
943.1217	 0.0584
945.0504	 0.0592
946.9791	 0.0603
948.9078	 0.0617
950.8364	 0.0633
952.7651	 0.0652
954.6938	 0.0673
956.6225	 0.0697
958.5511	 0.0723
960.4798	 0.0750
962.4085	 0.0778
964.3372	 0.0804
966.2658	 0.0831
968.1945	 0.0857
970.1232	 0.0883
972.0519	 0.0910
973.9805	 0.0941
975.9092	 0.0977
977.8379	 0.1020
979.7666	 0.1068
981.6952	 0.1122
983.6239	 0.1176
985.5526	 0.1223
987.4812	 0.1260
989.4099	 0.1291
991.3386	 0.1318
993.2673	 0.1340
995.1959	 0.1359
997.1246	 0.1378
999.0533	 0.1398
1000.9820	 0.1421
1002.9106	 0.1447
1004.8393	 0.1474
1006.7680	 0.1505
1008.6967	 0.1543
1010.6253	 0.1591
1012.5540	 0.1647
1014.4827	 0.1706
1016.4114	 0.1766
1018.3400	 0.1826
1020.2687	 0.1885
1022.1974	 0.1943
1024.1261	 0.2000
1026.0547	 0.2058
1027.9834	 0.2118
1029.9121	 0.2177
1031.8408	 0.2227
1033.7694	 0.2254
1035.6981	 0.2251
1037.6268	 0.2225
1039.5555	 0.2194
1041.4841	 0.2173
1043.4128	 0.2165
1045.3415	 0.2165
1047.2702	 0.2165
1049.1988	 0.2157
1051.1275	 0.2139
1053.0562	 0.2108
1054.9849	 0.2066
1056.9135	 0.2014
1058.8422	 0.1956
1060.7709	 0.1882
1062.6995	 0.1796
1064.6282	 0.1712
1066.5569	 0.1642
1068.4856	 0.1587
1070.4142	 0.1545
1072.3429	 0.1511
1074.2716	 0.1480
1076.2003	 0.1449
1078.1289	 0.1412
1080.0576	 0.1375
1081.9863	 0.1340
1083.9150	 0.1311
1085.8436	 0.1287
1087.7723	 0.1266
1089.7010	 0.1248
1091.6297	 0.1233
1093.5583	 0.1224
1095.4870	 0.1219
1097.4157	 0.1219
1099.3444	 0.1225
1101.2730	 0.1235
1103.2017	 0.1247
1105.1304	 0.1257
1107.0591	 0.1263
1108.9877	 0.1268
1110.9164	 0.1268
1112.8451	 0.1259
1114.7738	 0.1237
1116.7024	 0.1212
1118.6311	 0.1192
1120.5598	 0.1176
1122.4885	 0.1158
1124.4171	 0.1133
1126.3458	 0.1096
1128.2745	 0.1050
1130.2031	 0.0997
1132.1318	 0.0942
1134.0605	 0.0886
1135.9892	 0.0834
1137.9178	 0.0794
1139.8465	 0.0769
1141.7752	 0.0758
1143.7039	 0.0758
1145.6325	 0.0765
1147.5612	 0.0775
1149.4899	 0.0787
1151.4186	 0.0802
1153.3472	 0.0817
1155.2759	 0.0830
1157.2046	 0.0838
1159.1333	 0.0839
1161.0619	 0.0827
1162.9906	 0.0798
1164.9193	 0.0754
1166.8480	 0.0701
1168.7766	 0.0648
1170.7053	 0.0602
1172.6340	 0.0563
1174.5627	 0.0531
1176.4913	 0.0507
1178.4200	 0.0489
1180.3487	 0.0475
1182.2774	 0.0466
1184.2060	 0.0458
1186.1347	 0.0452
1188.0634	 0.0449
1189.9921	 0.0448
1191.9207	 0.0451
1193.8494	 0.0456
1195.7781	 0.0465
1197.7068	 0.0477
1199.6354	 0.0490
1201.5641	 0.0505
1203.4928	 0.0521
1205.4214	 0.0538
1207.3501	 0.0556
1209.2788	 0.0574
1211.2075	 0.0594
1213.1361	 0.0618
1215.0648	 0.0644
1216.9935	 0.0670
1218.9222	 0.0694
1220.8508	 0.0716
1222.7795	 0.0735
1224.7082	 0.0752
1226.6369	 0.0768
1228.5655	 0.0783
1230.4942	 0.0796
1232.4229	 0.0808
1234.3516	 0.0818
1236.2802	 0.0826
1238.2089	 0.0832
1240.1376	 0.0837
1242.0663	 0.0838
1243.9949	 0.0836
1245.9236	 0.0831
1247.8523	 0.0821
1249.7810	 0.0810
1251.7096	 0.0796
1253.6383	 0.0781
1255.5670	 0.0766
1257.4957	 0.0750
1259.4243	 0.0733
1261.3530	 0.0714
1263.2817	 0.0695
1265.2104	 0.0675
1267.1390	 0.0655
1269.0677	 0.0634
1270.9964	 0.0614
1272.9250	 0.0593
1274.8537	 0.0572
1276.7824	 0.0553
1278.7111	 0.0535
1280.6397	 0.0519
1282.5684	 0.0504
1284.4971	 0.0488
1286.4258	 0.0474
1288.3544	 0.0463
1290.2831	 0.0453
1292.2118	 0.0447
1294.1405	 0.0442
1296.0691	 0.0441
1297.9978	 0.0443
1299.9265	 0.0448
1301.8552	 0.0455
1303.7838	 0.0464
1305.7125	 0.0475
1307.6412	 0.0488
1309.5699	 0.0503
1311.4985	 0.0518
1313.4272	 0.0533
1315.3559	 0.0547
1317.2846	 0.0557
1319.2132	 0.0563
1321.1419	 0.0565
1323.0706	 0.0565
1324.9993	 0.0564
1326.9279	 0.0564
1328.8566	 0.0563
1330.7853	 0.0560
1332.7140	 0.0554
1334.6426	 0.0544
1336.5713	 0.0532
1338.5000	 0.0519
1340.4286	 0.0506
1342.3573	 0.0496
1344.2860	 0.0488
1346.2147	 0.0482
1348.1433	 0.0478
1350.0720	 0.0478
1352.0007	 0.0481
1353.9294	 0.0485
1355.8580	 0.0492
1357.7867	 0.0501
1359.7154	 0.0512
1361.6441	 0.0524
1363.5727	 0.0536
1365.5014	 0.0547
1367.4301	 0.0556
1369.3588	 0.0563
1371.2874	 0.0567
1373.2161	 0.0567
1375.1448	 0.0565
1377.0735	 0.0559
1379.0021	 0.0548
1380.9308	 0.0529
1382.8595	 0.0508
1384.7882	 0.0486
1386.7168	 0.0464
1388.6455	 0.0445
1390.5742	 0.0432
1392.5029	 0.0422
1394.4315	 0.0413
1396.3602	 0.0407
1398.2889	 0.0405
1400.2176	 0.0404
1402.1462	 0.0406
1404.0749	 0.0408
1406.0036	 0.0413
1407.9323	 0.0420
1409.8609	 0.0429
1411.7896	 0.0442
1413.7183	 0.0457
1415.6469	 0.0472
1417.5756	 0.0486
1419.5043	 0.0502
1421.4330	 0.0514
1423.3616	 0.0519
1425.2903	 0.0517
1427.2190	 0.0511
1429.1477	 0.0498
1431.0763	 0.0480
1433.0050	 0.0463
1434.9337	 0.0447
1436.8624	 0.0431
1438.7910	 0.0423
1440.7197	 0.0422
1442.6484	 0.0424
1444.5771	 0.0429
1446.5057	 0.0436
1448.4344	 0.0446
1450.3631	 0.0458
1452.2918	 0.0468
1454.2204	 0.0474
1456.1491	 0.0476
1458.0778	 0.0480
1460.0065	 0.0487
1461.9351	 0.0490
1463.8638	 0.0485
1465.7925	 0.0470
1467.7212	 0.0449
1469.6498	 0.0421
1471.5785	 0.0385
1473.5072	 0.0344
1475.4359	 0.0318
1477.3645	 0.0299
1479.2932	 0.0285
1481.2219	 0.0274
1483.1505	 0.0267
1485.0792	 0.0264
1487.0079	 0.0262
1488.9366	 0.0263
1490.8652	 0.0273
1492.7939	 0.0285
1494.7226	 0.0296
1496.6513	 0.0312
1498.5799	 0.0332
1500.5086	 0.0351
1502.4373	 0.0364
1504.3660	 0.0368
1506.2946	 0.0359
1508.2233	 0.0348
1510.1520	 0.0342
1512.0807	 0.0330
1514.0093	 0.0316
1515.9380	 0.0301
1517.8667	 0.0284
1519.7954	 0.0272
1521.7240	 0.0257
1523.6527	 0.0248
1525.5814	 0.0244
1527.5101	 0.0240
1529.4387	 0.0238
1531.3674	 0.0236
1533.2961	 0.0231
1535.2248	 0.0231
1537.1534	 0.0231
1539.0821	 0.0224
1541.0108	 0.0222
1542.9395	 0.0228
1544.8681	 0.0233
1546.7968	 0.0237
1548.7255	 0.0240
1550.6542	 0.0241
1552.5828	 0.0243
1554.5115	 0.0244
1556.4402	 0.0243
1558.3688	 0.0239
1560.2975	 0.0248
1562.2262	 0.0258
1564.1549	 0.0263
1566.0835	 0.0269
1568.0122	 0.0274
1569.9409	 0.0282
1571.8696	 0.0293
1573.7982	 0.0302
1575.7269	 0.0312
1577.6556	 0.0332
1579.5843	 0.0350
1581.5129	 0.0370
1583.4416	 0.0393
1585.3703	 0.0418
1587.2990	 0.0445
1589.2276	 0.0473
1591.1563	 0.0499
1593.0850	 0.0517
1595.0137	 0.0527
1596.9423	 0.0528
1598.8710	 0.0525
1600.7997	 0.0521
1602.7284	 0.0519
1604.6570	 0.0520
1606.5857	 0.0522
1608.5144	 0.0526
1610.4431	 0.0533
1612.3717	 0.0542
1614.3004	 0.0550
1616.2291	 0.0559
1618.1578	 0.0574
1620.0864	 0.0587
1622.0151	 0.0595
1623.9438	 0.0604
1625.8724	 0.0614
1627.8011	 0.0622
1629.7298	 0.0630
1631.6585	 0.0636
1633.5871	 0.0638
1635.5158	 0.0636
1637.4445	 0.0640
1639.3732	 0.0644
1641.3018	 0.0644
1643.2305	 0.0641
1645.1592	 0.0635
1647.0879	 0.0624
1649.0165	 0.0619
1650.9452	 0.0616
1652.8739	 0.0597
1654.8026	 0.0582
1656.7312	 0.0578
1658.6599	 0.0567
1660.5886	 0.0552
1662.5173	 0.0534
1664.4459	 0.0517
1666.3746	 0.0503
1668.3033	 0.0485
1670.2320	 0.0463
1672.1606	 0.0449
1674.0893	 0.0435
1676.0180	 0.0416
1677.9467	 0.0403
1679.8753	 0.0390
1681.8040	 0.0376
1683.7327	 0.0357
1685.6614	 0.0341
1687.5900	 0.0336
1689.5187	 0.0327
1691.4474	 0.0318
1693.3760	 0.0311
1695.3047	 0.0300
1697.2334	 0.0291
1699.1621	 0.0287
1701.0907	 0.0284
1703.0194	 0.0287
1704.9481	 0.0288
1706.8768	 0.0293
1708.8054	 0.0300
1710.7341	 0.0307
1712.6628	 0.0315
1714.5915	 0.0322
1716.5201	 0.0331
1718.4488	 0.0345
1720.3775	 0.0360
1722.3062	 0.0372
1724.2348	 0.0382
1726.1635	 0.0391
1728.0922	 0.0397
1730.0209	 0.0400
1731.9495	 0.0399
1733.8782	 0.0392
1735.8069	 0.0384
1737.7356	 0.0378
1739.6642	 0.0361
1741.5929	 0.0343
1743.5216	 0.0325
1745.4503	 0.0305
1747.3789	 0.0284
1749.3076	 0.0262
1751.2363	 0.0241
1753.1650	 0.0223
1755.0936	 0.0208
1757.0223	 0.0190
1758.9510	 0.0174
1760.8797	 0.0159
1762.8083	 0.0144
1764.7370	 0.0133
1766.6657	 0.0123
1768.5943	 0.0112
1770.5230	 0.0102
1772.4517	 0.0094
1774.3804	 0.0090
1776.3090	 0.0088
1778.2377	 0.0085
1780.1664	 0.0081
1782.0951	 0.0078
1784.0237	 0.0077
1785.9524	 0.0075
1787.8811	 0.0073
1789.8098	 0.0071
1791.7384	 0.0067
1793.6671	 0.0066
1795.5958	 0.0066
1797.5245	 0.0065
1799.4531	 0.0063
1801.3818	 0.0062
1803.3105	 0.0062
1805.2392	 0.0061
1807.1678	 0.0060
1809.0965	 0.0059
1811.0252	 0.0058
1812.9539	 0.0057
1814.8825	 0.0057
1816.8112	 0.0057
1818.7399	 0.0056
1820.6686	 0.0055
1822.5972	 0.0054
1824.5259	 0.0052
1826.4546	 0.0052
1828.3833	 0.0051
1830.3119	 0.0050
1832.2406	 0.0051
1834.1693	 0.0051
1836.0979	 0.0051
1838.0266	 0.0051
1839.9553	 0.0051
1841.8840	 0.0049
1843.8126	 0.0047
1845.7413	 0.0047
1847.6700	 0.0049
1849.5987	 0.0049
1851.5273	 0.0049
1853.4560	 0.0049
1855.3847	 0.0049
1857.3134	 0.0048
1859.2420	 0.0048
1861.1707	 0.0048
1863.0994	 0.0048
1865.0281	 0.0047
1866.9567	 0.0046
1868.8854	 0.0045
1870.8141	 0.0046
1872.7428	 0.0047
1874.6714	 0.0047
1876.6001	 0.0047
1878.5288	 0.0047
1880.4575	 0.0047
1882.3861	 0.0046
1884.3148	 0.0046
1886.2435	 0.0046
1888.1722	 0.0046
1890.1008	 0.0046
1892.0295	 0.0046
1893.9582	 0.0046
1895.8869	 0.0046
1897.8155	 0.0047
1899.7442	 0.0047
1901.6729	 0.0047
1903.6016	 0.0047
1905.5302	 0.0047
1907.4589	 0.0047
1909.3876	 0.0047
1911.3162	 0.0047
1913.2449	 0.0047
1915.1736	 0.0047
1917.1023	 0.0047
1919.0309	 0.0047
1920.9596	 0.0047
1922.8883	 0.0047
1924.8170	 0.0047
1926.7456	 0.0048
1928.6743	 0.0048
1930.6030	 0.0049
1932.5317	 0.0049
1934.4603	 0.0049
1936.3890	 0.0049
1938.3177	 0.0050
1940.2464	 0.0050
1942.1750	 0.0049
1944.1037	 0.0050
1946.0324	 0.0050
1947.9611	 0.0051
1949.8897	 0.0051
1951.8184	 0.0051
1953.7471	 0.0051
1955.6758	 0.0051
1957.6044	 0.0052
1959.5331	 0.0052
1961.4618	 0.0052
1963.3905	 0.0052
1965.3191	 0.0052
1967.2478	 0.0052
1969.1765	 0.0052
1971.1052	 0.0053
1973.0338	 0.0053
1974.9625	 0.0053
1976.8912	 0.0054
1978.8198	 0.0054
1980.7485	 0.0055
1982.6772	 0.0055
1984.6059	 0.0055
1986.5345	 0.0055
1988.4632	 0.0055
1990.3919	 0.0055
1992.3206	 0.0055
1994.2492	 0.0056
1996.1779	 0.0056
1998.1066	 0.0057
2000.0353	 0.0057
2001.9639	 0.0057
2003.8926	 0.0058
2005.8213	 0.0058
2007.7500	 0.0058
2009.6786	 0.0059
2011.6073	 0.0059
2013.5360	 0.0060
2015.4647	 0.0060
2017.3933	 0.0061
2019.3220	 0.0061
2021.2507	 0.0061
2023.1794	 0.0062
2025.1080	 0.0062
2027.0367	 0.0063
2028.9654	 0.0063
2030.8941	 0.0064
2032.8227	 0.0064
2034.7514	 0.0065
2036.6801	 0.0065
2038.6088	 0.0065
2040.5374	 0.0065
2042.4661	 0.0065
2044.3948	 0.0066
2046.3234	 0.0066
2048.2521	 0.0067
2050.1808	 0.0067
2052.1095	 0.0067
2054.0381	 0.0067
2055.9668	 0.0067
2057.8955	 0.0068
2059.8242	 0.0068
2061.7528	 0.0068
2063.6815	 0.0068
2065.6102	 0.0068
2067.5389	 0.0069
2069.4675	 0.0069
2071.3962	 0.0069
2073.3249	 0.0069
2075.2536	 0.0070
2077.1822	 0.0070
2079.1109	 0.0070
2081.0396	 0.0070
2082.9683	 0.0070
2084.8969	 0.0070
2086.8256	 0.0071
2088.7543	 0.0071
2090.6830	 0.0071
2092.6116	 0.0071
2094.5403	 0.0071
2096.4690	 0.0071
2098.3977	 0.0071
2100.3263	 0.0071
2102.2550	 0.0072
2104.1837	 0.0072
2106.1124	 0.0072
2108.0410	 0.0072
2109.9697	 0.0072
2111.8984	 0.0072
2113.8271	 0.0072
2115.7557	 0.0072
2117.6844	 0.0072
2119.6131	 0.0072
2121.5417	 0.0072
2123.4704	 0.0072
2125.3991	 0.0072
2127.3278	 0.0072
2129.2564	 0.0072
2131.1851	 0.0072
2133.1138	 0.0072
2135.0425	 0.0072
2136.9711	 0.0072
2138.8998	 0.0072
2140.8285	 0.0072
2142.7572	 0.0071
2144.6858	 0.0071
2146.6145	 0.0071
2148.5432	 0.0071
2150.4719	 0.0070
2152.4005	 0.0070
2154.3292	 0.0069
2156.2579	 0.0069
2158.1866	 0.0069
2160.1152	 0.0069
2162.0439	 0.0068
2163.9726	 0.0068
2165.9013	 0.0067
2167.8299	 0.0067
2169.7586	 0.0067
2171.6873	 0.0067
2173.6160	 0.0066
2175.5446	 0.0065
2177.4733	 0.0065
2179.4020	 0.0064
2181.3307	 0.0064
2183.2593	 0.0064
2185.1880	 0.0063
2187.1167	 0.0063
2189.0453	 0.0062
2190.9740	 0.0062
2192.9027	 0.0061
2194.8314	 0.0060
2196.7600	 0.0060
2198.6887	 0.0060
2200.6174	 0.0060
2202.5461	 0.0059
2204.4747	 0.0059
2206.4034	 0.0058
2208.3321	 0.0058
2210.2608	 0.0058
2212.1894	 0.0058
2214.1181	 0.0057
2216.0468	 0.0057
2217.9755	 0.0056
2219.9041	 0.0056
2221.8328	 0.0056
2223.7615	 0.0056
2225.6902	 0.0055
2227.6188	 0.0055
2229.5475	 0.0054
2231.4762	 0.0054
2233.4049	 0.0054
2235.3335	 0.0054
2237.2622	 0.0054
2239.1909	 0.0053
2241.1196	 0.0053
2243.0482	 0.0053
2244.9769	 0.0052
2246.9056	 0.0052
2248.8343	 0.0052
2250.7629	 0.0052
2252.6916	 0.0052
2254.6203	 0.0051
2256.5490	 0.0051
2258.4776	 0.0051
2260.4063	 0.0051
2262.3350	 0.0050
2264.2636	 0.0050
2266.1923	 0.0050
2268.1210	 0.0049
2270.0497	 0.0049
2271.9783	 0.0049
2273.9070	 0.0048
2275.8357	 0.0048
2277.7644	 0.0048
2279.6930	 0.0047
2281.6217	 0.0047
2283.5504	 0.0047
2285.4791	 0.0047
2287.4077	 0.0048
2289.3364	 0.0049
2291.2651	 0.0049
2293.1938	 0.0050
2295.1224	 0.0051
2297.0511	 0.0052
2298.9798	 0.0053
2300.9085	 0.0055
2302.8371	 0.0056
2304.7658	 0.0058
2306.6945	 0.0061
2308.6232	 0.0063
2310.5518	 0.0065
2312.4805	 0.0067
2314.4092	 0.0068
2316.3379	 0.0070
2318.2665	 0.0073
2320.1952	 0.0077
2322.1239	 0.0081
2324.0526	 0.0082
2325.9812	 0.0083
2327.9099	 0.0085
2329.8386	 0.0087
2331.7672	 0.0088
2333.6959	 0.0088
2335.6246	 0.0088
2337.5533	 0.0088
2339.4819	 0.0090
2341.4106	 0.0091
2343.3393	 0.0092
2345.2680	 0.0088
2347.1966	 0.0079
2349.1253	 0.0076
2351.0540	 0.0082
2352.9827	 0.0092
2354.9113	 0.0099
2356.8400	 0.0105
2358.7687	 0.0108
2360.6974	 0.0108
2362.6260	 0.0106
2364.5547	 0.0103
2366.4834	 0.0098
2368.4121	 0.0092
2370.3407	 0.0085
2372.2694	 0.0078
2374.1981	 0.0072
2376.1268	 0.0065
2378.0554	 0.0059
2379.9841	 0.0052
2381.9128	 0.0047
2383.8415	 0.0042
2385.7701	 0.0038
2387.6988	 0.0036
2389.6275	 0.0036
2391.5562	 0.0035
2393.4848	 0.0035
2395.4135	 0.0035
2397.3422	 0.0035
2399.2708	 0.0035
2401.1995	 0.0035
2403.1282	 0.0035
2405.0569	 0.0035
2406.9855	 0.0035
2408.9142	 0.0035
2410.8429	 0.0035
2412.7716	 0.0035
2414.7002	 0.0035
2416.6289	 0.0035
2418.5576	 0.0035
2420.4863	 0.0035
2422.4149	 0.0035
2424.3436	 0.0035
2426.2723	 0.0035
2428.2010	 0.0035
2430.1296	 0.0035
2432.0583	 0.0035
2433.9870	 0.0035
2435.9157	 0.0035
2437.8443	 0.0035
2439.7730	 0.0035
2441.7017	 0.0035
2443.6304	 0.0035
2445.5590	 0.0035
2447.4877	 0.0035
2449.4164	 0.0035
2451.3451	 0.0034
2453.2737	 0.0035
2455.2024	 0.0035
2457.1311	 0.0035
2459.0598	 0.0035
2460.9884	 0.0035
2462.9171	 0.0035
2464.8458	 0.0035
2466.7745	 0.0035
2468.7031	 0.0035
2470.6318	 0.0035
2472.5605	 0.0035
2474.4891	 0.0035
2476.4178	 0.0035
2478.3465	 0.0035
2480.2752	 0.0035
2482.2038	 0.0035
2484.1325	 0.0035
2486.0612	 0.0035
2487.9899	 0.0035
2489.9185	 0.0035
2491.8472	 0.0035
2493.7759	 0.0035
2495.7046	 0.0035
2497.6332	 0.0035
2499.5619	 0.0036
2501.4906	 0.0036
2503.4193	 0.0036
2505.3479	 0.0036
2507.2766	 0.0036
2509.2053	 0.0036
2511.1340	 0.0035
2513.0626	 0.0035
2514.9913	 0.0036
2516.9200	 0.0036
2518.8487	 0.0036
2520.7773	 0.0036
2522.7060	 0.0036
2524.6347	 0.0036
2526.5634	 0.0036
2528.4920	 0.0036
2530.4207	 0.0036
2532.3494	 0.0036
2534.2781	 0.0036
2536.2067	 0.0036
2538.1354	 0.0037
2540.0641	 0.0037
2541.9927	 0.0036
2543.9214	 0.0036
2545.8501	 0.0036
2547.7788	 0.0036
2549.7074	 0.0037
2551.6361	 0.0036
2553.5648	 0.0036
2555.4935	 0.0036
2557.4221	 0.0037
2559.3508	 0.0037
2561.2795	 0.0037
2563.2082	 0.0037
2565.1368	 0.0037
2567.0655	 0.0037
2568.9942	 0.0037
2570.9229	 0.0037
2572.8515	 0.0037
2574.7802	 0.0037
2576.7089	 0.0038
2578.6376	 0.0038
2580.5662	 0.0037
2582.4949	 0.0038
2584.4236	 0.0038
2586.3523	 0.0038
2588.2809	 0.0038
2590.2096	 0.0038
2592.1383	 0.0038
2594.0670	 0.0038
2595.9956	 0.0039
2597.9243	 0.0039
2599.8530	 0.0039
2601.7817	 0.0039
2603.7103	 0.0039
2605.6390	 0.0039
2607.5677	 0.0039
2609.4964	 0.0040
2611.4250	 0.0040
2613.3537	 0.0040
2615.2824	 0.0040
2617.2110	 0.0040
2619.1397	 0.0040
2621.0684	 0.0041
2622.9971	 0.0041
2624.9257	 0.0041
2626.8544	 0.0042
2628.7831	 0.0042
2630.7118	 0.0042
2632.6404	 0.0042
2634.5691	 0.0043
2636.4978	 0.0043
2638.4265	 0.0043
2640.3551	 0.0044
2642.2838	 0.0044
2644.2125	 0.0044
2646.1412	 0.0044
2648.0698	 0.0045
2649.9985	 0.0045
2651.9272	 0.0045
2653.8559	 0.0046
2655.7845	 0.0046
2657.7132	 0.0046
2659.6419	 0.0046
2661.5706	 0.0047
2663.4992	 0.0047
2665.4279	 0.0047
2667.3566	 0.0048
2669.2853	 0.0048
2671.2139	 0.0048
2673.1426	 0.0049
2675.0713	 0.0049
2677.0000	 0.0049
2678.9286	 0.0050
2680.8573	 0.0050
2682.7860	 0.0051
2684.7146	 0.0051
2686.6433	 0.0051
2688.5720	 0.0052
2690.5007	 0.0052
2692.4293	 0.0053
2694.3580	 0.0053
2696.2867	 0.0054
2698.2154	 0.0054
2700.1440	 0.0054
2702.0727	 0.0055
2704.0014	 0.0056
2705.9301	 0.0056
2707.8587	 0.0056
2709.7874	 0.0057
2711.7161	 0.0058
2713.6448	 0.0058
2715.5734	 0.0058
2717.5021	 0.0059
2719.4308	 0.0059
2721.3595	 0.0060
2723.2881	 0.0060
2725.2168	 0.0061
2727.1455	 0.0061
2729.0742	 0.0061
2731.0028	 0.0062
2732.9315	 0.0062
2734.8602	 0.0062
2736.7889	 0.0063
2738.7175	 0.0063
2740.6462	 0.0063
2742.5749	 0.0064
2744.5036	 0.0064
2746.4322	 0.0064
2748.3609	 0.0065
2750.2896	 0.0065
2752.2182	 0.0065
2754.1469	 0.0066
2756.0756	 0.0066
2758.0043	 0.0067
2759.9329	 0.0067
2761.8616	 0.0068
2763.7903	 0.0069
2765.7190	 0.0069
2767.6476	 0.0069
2769.5763	 0.0069
2771.5050	 0.0070
2773.4337	 0.0071
2775.3623	 0.0072
2777.2910	 0.0073
2779.2197	 0.0073
2781.1484	 0.0074
2783.0770	 0.0075
2785.0057	 0.0075
2786.9344	 0.0076
2788.8631	 0.0076
2790.7917	 0.0077
2792.7204	 0.0078
2794.6491	 0.0080
2796.5778	 0.0081
2798.5064	 0.0081
2800.4351	 0.0083
2802.3638	 0.0084
2804.2925	 0.0085
2806.2211	 0.0086
2808.1498	 0.0088
2810.0785	 0.0089
2812.0072	 0.0091
2813.9358	 0.0092
2815.8645	 0.0094
2817.7932	 0.0096
2819.7219	 0.0098
2821.6505	 0.0101
2823.5792	 0.0103
2825.5079	 0.0106
2827.4365	 0.0108
2829.3652	 0.0111
2831.2939	 0.0115
2833.2226	 0.0119
2835.1512	 0.0123
2837.0799	 0.0128
2839.0086	 0.0134
2840.9373	 0.0140
2842.8659	 0.0146
2844.7946	 0.0153
2846.7233	 0.0161
2848.6520	 0.0168
2850.5806	 0.0172
2852.5093	 0.0173
2854.4380	 0.0173
2856.3667	 0.0173
2858.2953	 0.0173
2860.2240	 0.0175
2862.1527	 0.0176
2864.0814	 0.0179
2866.0100	 0.0182
2867.9387	 0.0185
2869.8674	 0.0188
2871.7961	 0.0191
2873.7247	 0.0193
2875.6534	 0.0196
2877.5821	 0.0198
2879.5108	 0.0201
2881.4394	 0.0204
2883.3681	 0.0207
2885.2968	 0.0210
2887.2255	 0.0212
2889.1541	 0.0215
2891.0828	 0.0217
2893.0115	 0.0220
2894.9401	 0.0222
2896.8688	 0.0224
2898.7975	 0.0227
2900.7262	 0.0229
2902.6548	 0.0231
2904.5835	 0.0233
2906.5122	 0.0236
2908.4409	 0.0238
2910.3695	 0.0241
2912.2982	 0.0245
2914.2269	 0.0249
2916.1556	 0.0253
2918.0842	 0.0255
2920.0129	 0.0255
2921.9416	 0.0253
2923.8703	 0.0252
2925.7989	 0.0250
2927.7276	 0.0249
2929.6563	 0.0248
2931.5850	 0.0247
2933.5136	 0.0247
2935.4423	 0.0246
2937.3710	 0.0247
2939.2997	 0.0246
2941.2283	 0.0245
2943.1570	 0.0243
2945.0857	 0.0241
2947.0144	 0.0237
2948.9430	 0.0233
2950.8717	 0.0230
2952.8004	 0.0226
2954.7291	 0.0223
2956.6577	 0.0220
2958.5864	 0.0218
2960.5151	 0.0217
2962.4438	 0.0215
2964.3724	 0.0214
2966.3011	 0.0214
2968.2298	 0.0213
2970.1584	 0.0213
2972.0871	 0.0211
2974.0158	 0.0210
2975.9445	 0.0209
2977.8731	 0.0208
2979.8018	 0.0208
2981.7305	 0.0208
2983.6592	 0.0206
2985.5878	 0.0204
2987.5165	 0.0203
2989.4452	 0.0203
2991.3739	 0.0204
2993.3025	 0.0204
2995.2312	 0.0204
2997.1599	 0.0205
2999.0886	 0.0206
3001.0172	 0.0208
3002.9459	 0.0209
3004.8746	 0.0210
3006.8033	 0.0212
3008.7319	 0.0213
3010.6606	 0.0214
3012.5893	 0.0216
3014.5180	 0.0218
3016.4466	 0.0220
3018.3753	 0.0222
3020.3040	 0.0225
3022.2327	 0.0227
3024.1613	 0.0230
3026.0900	 0.0233
3028.0187	 0.0236
3029.9474	 0.0239
3031.8760	 0.0242
3033.8047	 0.0246
3035.7334	 0.0249
3037.6620	 0.0252
3039.5907	 0.0256
3041.5194	 0.0260
3043.4481	 0.0263
3045.3767	 0.0267
3047.3054	 0.0272
3049.2341	 0.0276
3051.1628	 0.0280
3053.0914	 0.0285
3055.0201	 0.0290
3056.9488	 0.0294
3058.8775	 0.0299
3060.8061	 0.0303
3062.7348	 0.0308
3064.6635	 0.0313
3066.5922	 0.0318
3068.5208	 0.0324
3070.4495	 0.0329
3072.3782	 0.0334
3074.3069	 0.0340
3076.2355	 0.0345
3078.1642	 0.0350
3080.0929	 0.0356
3082.0216	 0.0361
3083.9502	 0.0367
3085.8789	 0.0372
3087.8076	 0.0378
3089.7363	 0.0384
3091.6649	 0.0390
3093.5936	 0.0396
3095.5223	 0.0402
3097.4510	 0.0408
3099.3796	 0.0415
3101.3083	 0.0421
3103.2370	 0.0427
3105.1656	 0.0434
3107.0943	 0.0441
3109.0230	 0.0448
3110.9517	 0.0455
3112.8803	 0.0462
3114.8090	 0.0469
3116.7377	 0.0476
3118.6664	 0.0483
3120.5950	 0.0490
3122.5237	 0.0497
3124.4524	 0.0505
3126.3811	 0.0512
3128.3097	 0.0519
3130.2384	 0.0527
3132.1671	 0.0535
3134.0958	 0.0543
3136.0244	 0.0551
3137.9531	 0.0559
3139.8818	 0.0568
3141.8105	 0.0576
3143.7391	 0.0584
3145.6678	 0.0593
3147.5965	 0.0601
3149.5252	 0.0610
3151.4538	 0.0618
3153.3825	 0.0627
3155.3112	 0.0636
3157.2399	 0.0644
3159.1685	 0.0653
3161.0972	 0.0662
3163.0259	 0.0671
3164.9546	 0.0680
3166.8832	 0.0688
3168.8119	 0.0698
3170.7406	 0.0707
3172.6693	 0.0716
3174.5979	 0.0725
3176.5266	 0.0735
3178.4553	 0.0744
3180.3839	 0.0753
3182.3126	 0.0762
3184.2413	 0.0771
3186.1700	 0.0779
3188.0986	 0.0788
3190.0273	 0.0797
3191.9560	 0.0807
3193.8847	 0.0816
3195.8133	 0.0824
3197.7420	 0.0833
3199.6707	 0.0842
3201.5994	 0.0851
3203.5280	 0.0859
3205.4567	 0.0868
3207.3854	 0.0876
3209.3141	 0.0884
3211.2427	 0.0892
3213.1714	 0.0900
3215.1001	 0.0908
3217.0288	 0.0916
3218.9574	 0.0924
3220.8861	 0.0932
3222.8148	 0.0940
3224.7435	 0.0947
3226.6721	 0.0955
3228.6008	 0.0962
3230.5295	 0.0969
3232.4582	 0.0976
3234.3868	 0.0983
3236.3155	 0.0990
3238.2442	 0.0996
3240.1729	 0.1003
3242.1015	 0.1009
3244.0302	 0.1015
3245.9589	 0.1021
3247.8875	 0.1028
3249.8162	 0.1034
3251.7449	 0.1041
3253.6736	 0.1047
3255.6022	 0.1053
3257.5309	 0.1059
3259.4596	 0.1065
3261.3883	 0.1072
3263.3169	 0.1078
3265.2456	 0.1084
3267.1743	 0.1089
3269.1030	 0.1095
3271.0316	 0.1101
3272.9603	 0.1105
3274.8890	 0.1110
3276.8177	 0.1115
3278.7463	 0.1119
3280.6750	 0.1123
3282.6037	 0.1127
3284.5324	 0.1130
3286.4610	 0.1134
3288.3897	 0.1137
3290.3184	 0.1140
3292.2471	 0.1143
3294.1757	 0.1146
3296.1044	 0.1149
3298.0331	 0.1152
3299.9618	 0.1154
3301.8904	 0.1157
3303.8191	 0.1160
3305.7478	 0.1163
3307.6765	 0.1165
3309.6051	 0.1168
3311.5338	 0.1170
3313.4625	 0.1174
3315.3911	 0.1178
3317.3198	 0.1182
3319.2485	 0.1186
3321.1772	 0.1190
3323.1058	 0.1195
3325.0345	 0.1201
3326.9632	 0.1206
3328.8919	 0.1210
3330.8205	 0.1215
3332.7492	 0.1219
3334.6779	 0.1222
3336.6066	 0.1225
3338.5352	 0.1227
3340.4639	 0.1229
3342.3926	 0.1229
3344.3213	 0.1229
3346.2499	 0.1230
3348.1786	 0.1229
3350.1073	 0.1229
3352.0360	 0.1228
3353.9646	 0.1226
3355.8933	 0.1225
3357.8220	 0.1224
3359.7507	 0.1223
3361.6793	 0.1221
3363.6080	 0.1219
3365.5367	 0.1217
3367.4654	 0.1216
3369.3940	 0.1214
3371.3227	 0.1212
3373.2514	 0.1210
3375.1801	 0.1207
3377.1087	 0.1205
3379.0374	 0.1203
3380.9661	 0.1200
3382.8948	 0.1197
3384.8234	 0.1194
3386.7521	 0.1190
3388.6808	 0.1187
3390.6094	 0.1184
3392.5381	 0.1180
3394.4668	 0.1177
3396.3955	 0.1173
3398.3241	 0.1169
3400.2528	 0.1165
3402.1815	 0.1160
3404.1102	 0.1156
3406.0388	 0.1150
3407.9675	 0.1145
3409.8962	 0.1140
3411.8249	 0.1135
3413.7535	 0.1129
3415.6822	 0.1122
3417.6109	 0.1115
3419.5396	 0.1108
3421.4682	 0.1101
3423.3969	 0.1094
3425.3256	 0.1088
3427.2543	 0.1081
3429.1829	 0.1073
3431.1116	 0.1065
3433.0403	 0.1058
3434.9690	 0.1050
3436.8976	 0.1042
3438.8263	 0.1035
3440.7550	 0.1027
3442.6837	 0.1019
3444.6123	 0.1011
3446.5410	 0.1002
3448.4697	 0.0994
3450.3984	 0.0987
3452.3270	 0.0979
3454.2557	 0.0970
3456.1844	 0.0962
3458.1130	 0.0954
3460.0417	 0.0946
3461.9704	 0.0938
3463.8991	 0.0929
3465.8277	 0.0921
3467.7564	 0.0913
3469.6851	 0.0905
3471.6138	 0.0897
3473.5424	 0.0888
3475.4711	 0.0880
3477.3998	 0.0871
3479.3285	 0.0863
3481.2571	 0.0855
3483.1858	 0.0847
3485.1145	 0.0839
3487.0432	 0.0831
3488.9718	 0.0823
3490.9005	 0.0815
3492.8292	 0.0806
3494.7579	 0.0799
3496.6865	 0.0791
3498.6152	 0.0783
3500.5439	 0.0774
3502.4726	 0.0765
3504.4012	 0.0757
3506.3299	 0.0750
3508.2586	 0.0742
3510.1873	 0.0734
3512.1159	 0.0726
3514.0446	 0.0718
3515.9733	 0.0710
3517.9020	 0.0702
3519.8306	 0.0694
3521.7593	 0.0686
3523.6880	 0.0677
3525.6167	 0.0669
3527.5453	 0.0661
3529.4740	 0.0653
3531.4027	 0.0645
3533.3313	 0.0638
3535.2600	 0.0629
3537.1887	 0.0621
3539.1174	 0.0613
3541.0460	 0.0604
3542.9747	 0.0596
3544.9034	 0.0588
3546.8321	 0.0579
3548.7607	 0.0571
3550.6894	 0.0563
3552.6181	 0.0554
3554.5468	 0.0547
3556.4754	 0.0539
3558.4041	 0.0531
3560.3328	 0.0523
3562.2615	 0.0515
3564.1901	 0.0506
3566.1188	 0.0496
3568.0475	 0.0486
3569.9762	 0.0480
3571.9048	 0.0474
3573.8335	 0.0466
3575.7622	 0.0458
3577.6909	 0.0449
3579.6195	 0.0442
3581.5482	 0.0434
3583.4769	 0.0427
3585.4056	 0.0418
3587.3342	 0.0408
3589.2629	 0.0400
3591.1916	 0.0395
3593.1203	 0.0389
3595.0489	 0.0380
3596.9776	 0.0372
3598.9063	 0.0364
3600.8349	 0.0356
3602.7636	 0.0349
3604.6923	 0.0343
3606.6210	 0.0335
3608.5496	 0.0325
3610.4783	 0.0317
3612.4070	 0.0309
3614.3357	 0.0301
3616.2643	 0.0296
3618.1930	 0.0287
3620.1217	 0.0279
3622.0504	 0.0274
3623.9790	 0.0268
3625.9077	 0.0262
3627.8364	 0.0252
3629.7651	 0.0240
3631.6937	 0.0236
3633.6224	 0.0231
3635.5511	 0.0223
3637.4798	 0.0216
3639.4084	 0.0209
3641.3371	 0.0201
3643.2658	 0.0194
3645.1945	 0.0186
3647.1231	 0.0175
3649.0518	 0.0163
3650.9805	 0.0156
3652.9092	 0.0153
3654.8378	 0.0149
3656.7665	 0.0140
3658.6952	 0.0135
3660.6239	 0.0130
3662.5525	 0.0123
3664.4812	 0.0117
3666.4099	 0.0110
3668.3385	 0.0102
3670.2672	 0.0092
3672.1959	 0.0089
3674.1246	 0.0084
3676.0532	 0.0075
3677.9819	 0.0073
3679.9106	 0.0072
3681.8393	 0.0070
3683.7679	 0.0067
3685.6966	 0.0063
3687.6253	 0.0056
3689.5540	 0.0051
3691.4826	 0.0051
3693.4113	 0.0051
3695.3400	 0.0049
3697.2687	 0.0048
3699.1973	 0.0046
3701.1260	 0.0043
3703.0547	 0.0040
3704.9834	 0.0040
3706.9120	 0.0038
3708.8407	 0.0035
3710.7694	 0.0030
3712.6981	 0.0029
3714.6267	 0.0030
3716.5554	 0.0030
3718.4841	 0.0030
3720.4128	 0.0029
3722.3414	 0.0028
3724.2701	 0.0027
3726.1988	 0.0027
3728.1275	 0.0027
3730.0561	 0.0026
3731.9848	 0.0022
3733.9135	 0.0020
3735.8422	 0.0019
3737.7708	 0.0019
3739.6995	 0.0020
3741.6282	 0.0019
3743.5568	 0.0017
3745.4855	 0.0014
3747.4142	 0.0014
3749.3429	 0.0012
3751.2715	 0.0010
3753.2002	 0.0013
3755.1289	 0.0015
3757.0576	 0.0014
3758.9862	 0.0013
3760.9149	 0.0014
3762.8436	 0.0015
3764.7723	 0.0014
3766.7009	 0.0013
3768.6296	 0.0013
3770.5583	 0.0013
3772.4870	 0.0015
3774.4156	 0.0015
3776.3443	 0.0014
3778.2730	 0.0012
3780.2017	 0.0012
3782.1303	 0.0013
3784.0590	 0.0013
3785.9877	 0.0012
3787.9164	 0.0013
3789.8450	 0.0013
3791.7737	 0.0012
3793.7024	 0.0012
3795.6311	 0.0010
3797.5597	 0.0009
3799.4884	 0.0008
3801.4171	 0.0005
3803.3458	 0.0007
3805.2744	 0.0008
3807.2031	 0.0007
3809.1318	 0.0009
3811.0604	 0.0010
3812.9891	 0.0010
3814.9178	 0.0008
3816.8465	 0.0006
3818.7751	 0.0006
3820.7038	 0.0003
3822.6325	 0.0004
3824.5612	 0.0007
3826.4898	 0.0008
3828.4185	 0.0008
3830.3472	 0.0007
3832.2759	 0.0006
3834.2045	 0.0006
3836.1332	 0.0004
3838.0619	 0.0003
3839.9906	 0.0003
3841.9192	 0.0005
3843.8479	 0.0006
3845.7766	 0.0007
3847.7053	 0.0008
3849.6339	 0.0007
3851.5626	 0.0002
3853.4913	 -0.0003
3855.4200	 0.0002
3857.3486	 0.0005
3859.2773	 0.0006
3861.2060	 0.0006
3863.1347	 0.0004
3865.0633	 0.0004
3866.9920	 0.0005
3868.9207	 0.0004
3870.8494	 0.0003
3872.7780	 0.0004
3874.7067	 0.0005
3876.6354	 0.0007
3878.5641	 0.0007
3880.4927	 0.0004
3882.4214	 0.0005
3884.3501	 0.0005
3886.2787	 0.0005
3888.2074	 0.0006
3890.1361	 0.0006
3892.0648	 0.0005
3893.9934	 0.0006
3895.9221	 0.0007
3897.8508	 0.0006
3899.7795	 0.0004
3901.7081	 0.0003
3903.6368	 0.0003
3905.5655	 0.0004
3907.4942	 0.0006
3909.4228	 0.0007
3911.3515	 0.0007
3913.2802	 0.0007
3915.2089	 0.0007
3917.1375	 0.0006
3919.0662	 0.0006
3920.9949	 0.0006
3922.9236	 0.0006
3924.8522	 0.0005
3926.7809	 0.0005
3928.7096	 0.0005
3930.6383	 0.0005
3932.5669	 0.0005
3934.4956	 0.0006
3936.4243	 0.0007
3938.3530	 0.0007
3940.2816	 0.0006
3942.2103	 0.0006
3944.1390	 0.0006
3946.0677	 0.0006
3947.9963	 0.0006
3949.9250	 0.0006
3951.8537	 0.0006
3953.7823	 0.0006
3955.7110	 0.0006
3957.6397	 0.0006
3959.5684	 0.0006
3961.4970	 0.0006
3963.4257	 0.0006
3965.3544	 0.0006
3967.2831	 0.0006
3969.2117	 0.0006
3971.1404	 0.0006
3973.0691	 0.0006
3974.9978	 0.0006
3976.9264	 0.0006
3978.8551	 0.0006
3980.7838	 0.0006
3982.7125	 0.0006
3984.6411	 0.0006
3986.5698	 0.0006
3988.4985	 0.0006
3990.4272	 0.0005
3992.3558	 0.0005
3994.2845	 0.0006
3996.2132	 0.0006
3998.1419	 0.0005
4000.0705	 0.0005
Filename=J1065 Grinded
ObjectID=6E3F7890-2B2C-47D1-A9CA-8DE5135C67D3
Operator=VU
Department=FALW
